Fp1 Fp2 AF3 AF4 Fz F3 F4 F7 F8 FC5 FC6 FT7 FT8 Cz FC1 FC2 C3 C4 T7 T8 A1 A2 CP1 CP2 CP5 CP6 TP7 TP8 Pz P3 P4 P7 P8 PO9 PO10 PO3 PO4 PO7 PO8 O1 O2 Oz ID time
4.824768 3.099455 2.758574 2.96645 2.35906 1.436594 3.60547 1.035558 3.212248 0.8553411 2.210961 0.3126456 2.331447 -0.4613123 1.592594 1.900288 2.072878 0.3444675 -1.159058 3.372946 -0.4722457 -1.463275 0.173145 0.2971063 -1.132959 0.5888398 -3.996294 -2.594414 -1.98249 -2.750571 -1.357749 -5.144317 -3.68209 -4.671598 -3.455447 -4.991992 -3.590361 -6.176804 -4.013685 -5.61955 1.199809 16.16553 1 -168
5.698991 3.22826 2.575795 3.123234 2.453205 1.549269 3.781916 1.267911 3.034365 0.6912083 2.126326 0.5737156 2.264333 -0.4887538 1.526127 1.912758 1.949253 0.4705153 -1.382972 2.830934 -0.5248405 -1.50312 -0.09975176 0.1954918 -1.592573 0.4302833 -3.829267 -2.652804 -2.087857 -2.834645 -1.585841 -5.19096 -3.85388 -4.628044 -3.614093 -4.884373 -3.748675 -5.933031 -4.11042 -5.557097 0.7847692 17.63427 1 -164
6.028433 3.050023 2.144668 2.977693 2.159788 1.509766 3.579286 1.242092 2.785301 0.1816937 1.851839 0.782981 2.020591 -0.6241569 1.236899 1.699967 1.653937 0.3757267 -1.530554 1.853975 -0.5319847 -1.519931 -0.2340834 -0.06193576 -1.670892 0.1302019 -3.455364 -2.478275 -2.097203 -2.522286 -1.745055 -4.853163 -3.698687 -4.32242 -3.475361 -4.261324 -3.601923 -5.375659 -3.928623 -5.151439 0.4513233 19.42406 1 -160
6.20632 2.731899 1.676508 2.693168 1.778332 1.661544 3.205186 1.11552 2.464931 -0.3241746 1.508597 1.01517 1.696325 -0.7839517 0.9558026 1.433109 1.283383 0.1605468 -1.643248 0.8882043 -0.5355696 -1.506401 -0.3551781 -0.4391475 -1.721396 -0.249768 -3.06079 -2.156522 -2.0609 -2.164544 -1.927037 -4.403046 -3.390922 -3.839992 -3.201625 -3.484786 -3.3179 -4.736316 -3.628153 -4.572186 0.1569954 20.87205 1 -156
6.366721 2.531169 1.483079 2.50507 1.577663 2.041262 2.915293 1.023872 2.17057 -0.5968137 1.24261 0.9251264 1.42915 -0.8678913 0.7993402 1.265419 1.012587 -0.0498608 -1.804354 0.5533091 -0.5073197 -1.47886 -0.4758507 -0.7791309 -1.815437 -0.4093772 -2.721924 -1.853982 -2.010172 -1.960512 -2.078475 -4.070346 -3.217742 -3.36777 -3.045027 -2.971764 -3.150688 -4.221884 -3.408187 -4.044476 -0.0605488 21.12614 1 -152
6.039182 2.441666 1.717499 2.388044 1.647928 2.300751 2.76573 0.9488935 2.03134 -0.647142 1.193165 0.4093318 1.356661 -0.8304287 0.7985876 1.241305 0.9085855 -0.1811806 -1.920311 0.8924937 -0.4373061 -1.458571 -0.5784808 -0.9033896 -1.777152 -0.2551799 -2.457785 -1.675061 -1.940983 -1.836328 -2.09488 -3.738462 -3.194251 -2.993168 -3.032968 -2.684078 -3.121152 -3.778328 -3.289349 -3.58094 -0.01203042 19.33772 1 -148
5.139245 2.41067 2.203315 2.307601 1.945153 2.354017 2.740692 1.041865 1.988495 -0.5377218 1.220227 -0.005773799 1.338236 -0.7056789 0.9661066 1.318805 0.9466057 -0.2462134 -1.857993 1.211598 -0.3806438 -1.442549 -0.6637345 -0.8348902 -1.717412 -0.01894535 -2.318393 -1.617406 -1.866069 -1.769137 -1.984561 -3.330387 -3.159886 -2.683331 -3.006485 -2.442132 -3.094193 -3.31997 -3.196735 -3.103796 0.06348419 16.1079 1 -144
4.051598 2.464334 2.522052 2.332919 2.234109 2.325205 2.764413 1.219736 1.889387 -0.447404 1.148316 0.06994811 1.233842 -0.5828733 1.194303 1.391312 1.010399 -0.3331591 -1.646788 1.109342 -0.3619743 -1.405728 -0.7257319 -0.7541679 -1.819545 0.1084889 -2.233701 -1.550201 -1.75959 -1.821512 -1.80811 -2.945201 -2.975272 -2.377711 -2.812509 -2.243623 -2.946709 -2.830343 -3.030892 -2.553742 -0.04106881 12.93789 1 -140
3.186499 2.527451 2.485501 2.403029 2.321307 2.271242 2.720732 1.189478 1.674392 -0.5172772 1.112384 0.4946903 1.193555 -0.5492821 1.297143 1.388778 0.9267296 -0.4440572 -1.40867 0.9933821 -0.409819 -1.372929 -0.8171267 -0.7284307 -2.06205 0.1329044 -2.119124 -1.405363 -1.599589 -2.014099 -1.616896 -2.660774 -2.610963 -2.08735 -2.430675 -2.162623 -2.620545 -2.335479 -2.712611 -1.953722 -0.1905706 10.51078 1 -136
2.59266 2.450462 2.366922 2.342648 2.275613 2.201554 2.593484 0.9278627 1.412887 -0.677884 1.199037 0.7975083 1.280783 -0.6085324 1.222031 1.389021 0.6927922 -0.4932103 -1.272849 1.229823 -0.5212955 -1.383844 -0.960243 -0.7132221 -2.251285 0.04831999 -2.001003 -1.260601 -1.425494 -2.203114 -1.501754 -2.448869 -2.19149 -1.83133 -1.988211 -2.159831 -2.203914 -1.877982 -2.27998 -1.40596 -0.289871 8.928287 1 -132
1.863445 2.106295 2.381358 1.998781 2.184974 1.816282 2.389015 0.5537817 1.220211 -0.840817 1.250659 0.67256 1.320893 -0.6481593 1.055799 1.46189 0.5026147 -0.4322807 -1.203549 1.48868 -0.5589357 -1.348988 -1.037715 -0.6827824 -2.18677 -0.04830096 -1.827475 -1.099989 -1.213275 -2.141139 -1.416126 -2.100122 -1.712649 -1.473445 -1.499557 -2.020576 -1.734504 -1.368441 -1.741663 -0.8602747 -0.2096266 7.139977 1 -128
1.115164 1.423185 2.505371 1.29645 2.065394 0.8353912 2.066303 0.229602 1.105125 -0.9232419 1.099305 0.3775587 1.143109 -0.5676005 0.951973 1.556943 0.5036592 -0.3007542 -0.971486 1.33347 -0.4424691 -1.174138 -0.9511958 -0.6566239 -1.842766 -0.03383183 -1.529284 -0.8415878 -0.9121585 -1.793742 -1.243202 -1.473692 -1.104822 -0.9145775 -0.9140103 -1.632497 -1.169011 -0.732661 -1.096648 -0.1992189 0.06437775 3.748786 1 -124
1.201149 0.6364112 2.556305 0.5026039 2.000337 -0.2642851 1.724154 0.1247691 0.9288477 -0.804851 0.7325392 0.3305717 0.7554217 -0.4228216 1.019118 1.596854 0.6378747 -0.2327422 -0.5406644 0.8082345 -0.2999081 -0.9674019 -0.8026847 -0.7273765 -1.383219 -0.03358356 -1.24502 -0.5840492 -0.6483806 -1.390822 -1.114886 -0.8061731 -0.580591 -0.3507838 -0.4217907 -1.153804 -0.6681607 -0.1559758 -0.5450696 0.4300447 0.1750522 -0.01528437 1 -120
2.340266 0.1654854 2.345189 0.06320777 2.012976 -0.5887785 1.552583 0.2204214 0.6131954 -0.5639886 0.2673566 0.5271687 0.2876144 -0.392516 1.141631 1.490884 0.7047554 -0.3747474 -0.2104467 0.240945 -0.3057643 -0.9031309 -0.7606516 -0.9709976 -0.990284 -0.2577448 -1.159071 -0.5246506 -0.5954 -1.168551 -1.193094 -0.4649124 -0.3748837 -0.06000764 -0.2330756 -0.8161007 -0.4356062 0.1452332 -0.2908384 0.7772066 -0.190061 -1.070849 1 -116
3.683273 0.1349736 1.995382 0.07706492 1.961944 0.1013017 1.494009 0.4784725 0.2371286 -0.4311626 -0.264462 0.7746678 -0.2418967 -0.5280647 1.127056 1.160774 0.6383309 -0.7266911 -0.1695992 -0.1636915 -0.4543458 -0.983701 -0.8134703 -1.279387 -0.7792721 -0.7429245 -1.216643 -0.687161 -0.6893098 -1.148209 -1.354574 -0.4971328 -0.360597 -0.08122048 -0.2079404 -0.7149965 -0.3691379 0.2115059 -0.2249641 0.8637133 -0.9863583 1.177309 1 -112
4.32684 0.2958954 1.606935 0.2720018 1.667987 0.9724256 1.264838 0.7847145 -0.06319272 -0.487882 -0.8157881 0.9505002 -0.7757543 -0.6951007 0.9001572 0.6189897 0.5601972 -1.097149 -0.3516482 -0.4982534 -0.5628424 -1.046732 -0.851227 -1.431505 -0.8486879 -1.131412 -1.171477 -0.878706 -0.7147412 -1.16646 -1.356802 -0.6150672 -0.225928 -0.1892779 -0.05174991 -0.678004 -0.1907464 0.2619008 -0.05742238 0.934749 -1.782135 4.317534 1 -108
3.826558 0.3095134 1.184917 0.3118428 1.124595 1.069813 0.7547902 0.9387202 -0.1613675 -0.5941266 -1.166 1.022319 -1.074451 -0.7898467 0.5214204 0.03054705 0.5319276 -1.258531 -0.5302469 -0.7533918 -0.5049398 -0.9450637 -0.8148047 -1.323535 -1.086088 -1.076764 -0.8885611 -0.8743177 -0.5654449 -1.05444 -1.139283 -0.4976439 0.07382477 -0.1188227 0.2470135 -0.4059159 0.1418146 0.4873655 0.2763184 1.158089 -2.129544 5.741808 1 -104
2.252265 0.1583557 0.9990065 0.1647048 0.5834504 0.6803892 0.2027411 1.068911 -0.09443564 -0.5310015 -1.249412 1.062984 -1.111464 -0.8420674 0.18092 -0.3716763 0.4964193 -1.155646 -0.4777985 -0.6770846 -0.3468055 -0.7152856 -0.6888729 -1.058545 -1.181227 -0.9354372 -0.5183001 -0.6622084 -0.3222854 -0.7964948 -0.9035594 -0.1187134 0.3076626 0.1237077 0.4771912 0.09122803 0.4017546 0.8313341 0.5818707 1.46016 -2.246867 4.88018 1 -100
0.6072894 0.09136431 1.090979 0.07725889 0.2715766 0.683889 -0.07407058 1.265603 0.02444992 -0.3526065 -1.247258 0.8862869 -1.118062 -0.951853 -0.01935742 -0.5183004 0.374093 -0.9309084 -0.4322695 -0.2808225 -0.2952582 -0.545486 -0.5791647 -0.8164812 -1.06844 -1.062976 -0.3356674 -0.4793853 -0.151864 -0.6035308 -0.8362288 0.1457838 0.3690449 0.2490019 0.5568356 0.4404817 0.4702153 1.005655 0.7198174 1.585789 -2.4559 4.240497 1 -96
0.1544327 0.1314918 1.100687 0.09997977 0.1605524 0.9090956 -0.03407721 1.210344 0.2631347 -0.4084408 -1.168884 0.2873292 -1.087922 -1.140027 -0.1991363 -0.5079514 0.1363499 -0.7190947 -0.7337215 0.2755864 -0.4705216 -0.5487558 -0.6438724 -0.6126888 -0.9630419 -0.9959106 -0.4092461 -0.5006568 -0.1246499 -0.6138865 -0.7884346 0.05754999 0.3955883 0.08197036 0.5796244 0.4316884 0.4717235 0.8597778 0.7374273 1.363623 -2.35573 5.318645 1 -92
0.6677304 0.113137 0.8585777 0.08246848 0.1011056 0.6954811 0.08815531 0.814827 0.6467576 -0.7494223 -0.8406312 -0.2711665 -0.8099123 -1.276622 -0.4739542 -0.4656977 -0.1536668 -0.5251103 -1.070629 0.889451 -0.7406698 -0.6471886 -0.8453979 -0.3266572 -0.9708426 -0.3279183 -0.5202401 -0.6342451 -0.1619898 -0.6458243 -0.5015656 -0.09775951 0.5368784 -0.2107952 0.6549833 0.2854472 0.5501676 0.5433697 0.7773615 0.9118751 -1.670806 5.721 1 -88
0.7461624 0.01075204 0.4501504 -0.0005418442 -0.01361607 0.1227687 0.1028613 0.4623141 0.9199716 -0.9748355 -0.3796992 -0.2137548 -0.3781458 -1.218399 -0.7299352 -0.4574861 -0.334767 -0.314786 -0.9393613 1.160227 -0.8915184 -0.684128 -0.9407383 -0.005986268 -0.8975257 0.4893338 -0.464771 -0.6664255 -0.1731004 -0.4928186 -0.05893682 -0.01926007 0.7202243 -0.3595886 0.7537923 0.2876802 0.6764498 0.298535 0.8556286 0.4733974 -0.9255139 4.005389 1 -84
0.06870313 -0.0824203 0.1045243 -0.0697073 -0.1487067 -0.3075603 0.0666565 0.385479 0.9120768 -0.8739328 -0.1197034 0.2116981 -0.1115486 -1.000038 -0.762085 -0.4064783 -0.28583 -0.1001455 -0.4299704 0.6938075 -0.8458425 -0.6177314 -0.749004 0.1454045 -0.5367638 0.8665459 -0.2966944 -0.5252075 -0.1577669 -0.1634064 0.2264886 0.2147362 0.7122419 -0.3069013 0.7071457 0.4693635 0.669732 0.2086652 0.7851067 0.137488 -0.585003 1.896481 1 -80
-0.5244894 -0.1237311 0.03313622 -0.1049726 -0.1944545 -0.3931966 0.0891192 0.3444896 0.7866781 -0.6530794 -0.1054571 0.3866795 -0.07016832 -0.7795626 -0.6028358 -0.2137495 -0.1263697 0.07052547 -0.007213777 -0.2303359 -0.690689 -0.5302854 -0.3602486 0.07805253 -0.05056721 0.8354924 -0.1693677 -0.3286684 -0.1525001 0.2140678 0.2785069 0.4106598 0.4990033 -0.1836665 0.4874645 0.6773523 0.4768134 0.1968839 0.5281646 -0.09474339 -0.4257212 0.7229407 1 -76
-0.5710579 -0.1402034 0.1469698 -0.1298509 -0.1316886 -0.1885645 0.1440114 0.06251458 0.7448654 -0.5117759 -0.08281359 0.2229717 -0.02092229 -0.6589031 -0.4760962 0.03141326 -0.08373524 0.1559007 0.04089296 -0.9408727 -0.6023406 -0.5092636 -0.0657304 -0.06506012 0.1535525 0.7344792 -0.1731952 -0.2304295 -0.2106751 0.4428793 0.2361283 0.4182642 0.2880562 -0.1322619 0.2396393 0.7105591 0.2519307 0.1663781 0.2674821 -0.2531374 -0.07940726 0.7990682 1 -72
-0.05954004 -0.0976254 0.1315705 -0.08471663 -0.02880272 0.1858924 0.1932294 -0.3585645 0.7614611 -0.5079799 0.09639978 -0.02089861 0.1659495 -0.6529769 -0.4810835 0.1459486 -0.1932026 0.1373528 -0.2289545 -1.15096 -0.6547 -0.5934004 -0.03031822 -0.1718085 0.02625152 0.6609483 -0.3185945 -0.2802595 -0.378626 0.4112376 0.1101461 0.1822877 0.1768134 -0.1934213 0.05789908 0.502739 0.1027361 0.07078373 0.07260301 -0.4418264 0.3621632 2.373831 1 -68
0.8372439 -0.000822601 -0.1454748 0.03035815 0.01730481 0.4169656 0.2012147 -0.6027968 0.6584744 -0.6734735 0.2691982 -0.2112381 0.3032346 -0.6821294 -0.5453507 0.08706064 -0.3116844 0.04765723 -0.469005 -1.005085 -0.6911763 -0.6994873 -0.06911784 -0.2340598 0.03747967 0.4240918 -0.4540839 -0.3261067 -0.565958 0.2880613 -0.1370606 -0.1130467 0.1353273 -0.2288919 -0.01985515 0.2096678 0.02468777 -0.04219086 -0.07205239 -0.6269174 0.5281814 4.410874 1 -64
1.668071 5.11164e-05 -0.3857563 0.04311517 -0.03329694 0.3362963 0.1043925 -0.5420395 0.4006014 -0.8960035 0.2864618 -0.3598055 0.2737292 -0.6380858 -0.5979521 -0.04140082 -0.3569052 -0.02365197 -0.4664402 -0.6092097 -0.5758306 -0.6846354 0.04638559 -0.2108442 0.379317 -0.03038961 -0.4434541 -0.2096842 -0.622025 0.2798519 -0.3899428 -0.2733639 0.05279343 -0.1160382 -0.0715163 -0.00409615 -0.06506698 -0.1204334 -0.173557 -0.6780725 0.3377349 5.410719 1 -60
1.936985 -0.1039566 -0.4212757 -0.06401984 -0.1311516 0.1092186 -0.01852983 -0.4156774 0.1849126 -1.064432 0.3196526 -0.538069 0.2898939 -0.5140321 -0.6301124 -0.1368418 -0.4083952 -0.01944065 -0.4254848 0.09057363 -0.4123316 -0.5327635 0.1976741 0.02866347 0.6166582 -0.2905386 -0.3746277 -0.03273011 -0.510164 0.3172697 -0.4528665 -0.337844 -0.1097629 0.04043584 -0.1814056 -0.1289957 -0.1919614 -0.2065075 -0.2650454 -0.6263039 0.2098207 5.203487 1 -56
1.339427 -0.1812037 -0.452444 -0.1534282 -0.2190823 -0.2116343 -0.04549387 -0.5187106 0.1644627 -1.237134 0.5550913 -0.7098672 0.5084281 -0.3479394 -0.6297083 -0.1592984 -0.5381075 0.05733845 -0.526514 1.169878 -0.3118407 -0.3222689 0.1533151 0.5254629 0.4018635 -0.007746415 -0.3255165 0.03584575 -0.2909835 0.2225312 -0.2120044 -0.3916646 -0.1822513 0.08806798 -0.2219238 -0.2313196 -0.2092175 -0.3456394 -0.3042045 -0.5641633 0.5498949 4.079763 1 -52
-0.04147191 -0.2292058 -0.5308433 -0.2215189 -0.2926562 -0.7113481 -0.02350863 -0.7889645 0.2758784 -1.174374 0.8813454 -0.7879348 0.7923502 -0.09314604 -0.5411709 -0.1054119 -0.5827245 0.2054379 -0.5306047 2.41266 -0.1567495 -0.07976487 0.04178727 1.084173 0.01082819 0.5681112 -0.187774 0.06102324 -0.0560253 0.06470817 0.2443979 -0.3308992 -0.08414969 0.05818436 -0.1111807 -0.286551 -0.06979868 -0.4564125 -0.2314956 -0.4873844 1.224834 1.267386 1 -48
-1.48605 -0.2623816 -0.5637619 -0.2709687 -0.3294195 -1.205142 0.008770422 -0.8837309 0.3485744 -0.447183 1.050422 -0.7345195 0.9117498 0.2917873 -0.2674749 0.02508175 -0.2996662 0.3918023 -0.118578 3.131381 0.153289 0.16764 0.1681456 1.395139 -0.03759442 0.9614232 0.02673258 0.1737299 0.09571366 0.01665046 0.6468737 -0.09104218 0.01673424 0.03507917 -0.0092149 -0.2910205 0.04773437 -0.48994 -0.147758 -0.4133531 1.740085 -3.455748 1 -44
-2.055756 -0.2028483 -0.5324212 -0.2093224 -0.2464256 -1.367109 0.1045317 -0.6815954 0.2579395 0.7526696 0.9962017 -0.529599 0.8440515 0.7170305 0.2216518 0.2102587 0.2309752 0.5245534 0.5920537 2.89436 0.4792657 0.3585215 0.5134926 1.324505 0.3286384 0.9550372 0.1150859 0.304977 0.1312164 0.02868348 0.778228 0.1152261 -0.02711802 -0.02956306 -0.05709706 -0.3920153 -0.005637234 -0.5854933 -0.190546 -0.4163249 1.807871 -8.05813 1 -40
-1.771084 -0.0768791 -0.4481776 -0.07549936 -0.08292211 -1.271463 0.1909575 -0.46664 -0.03445061 1.752834 0.854898 -0.2363628 0.7628784 1.069004 0.7615315 0.3764708 0.6726161 0.5734497 1.243853 2.037568 0.7197365 0.5289787 0.8397765 1.023552 0.7678625 0.7239918 0.118252 0.3997066 0.1476942 0.02307508 0.6983323 0.1966144 -0.1342143 -0.1127197 -0.1497388 -0.5772213 -0.1349958 -0.7222062 -0.2808376 -0.4130593 1.587658 -11.08284 1 -36
-1.292726 0.003282588 -0.2885255 -0.003099805 0.07320884 -1.068002 0.1773125 -0.4023669 -0.4767244 2.2287 0.7282166 0.04736679 0.7301816 1.285542 1.139753 0.4825072 0.8493508 0.5658149 1.58479 1.008247 0.9007893 0.7074329 0.9858744 0.6545333 0.8969477 0.5282719 0.2125996 0.5060436 0.2151151 0.02293398 0.5650488 0.2624998 -0.181223 -0.0886494 -0.1629909 -0.6627809 -0.1809564 -0.668134 -0.2925151 -0.2979558 1.272851 -12.56853 1 -32
-0.8163443 0.06478002 -0.08214822 0.04414049 0.2747475 -0.5500042 0.1405931 -0.3827004 -0.9139721 2.303845 0.6064799 0.2087813 0.665898 1.333233 1.305331 0.5346078 0.8117775 0.4919558 1.466799 -0.0557963 0.9749725 0.7944008 0.8827569 0.2408304 0.6097506 0.3068546 0.3240453 0.5421857 0.2676692 0.01179109 0.3740168 0.2491193 -0.2352195 0.00317036 -0.2100986 -0.6257565 -0.2202596 -0.4435839 -0.3185669 -0.1986299 0.8915681 -11.67308 1 -28
-0.5785035 0.1742417 0.04748891 0.1534563 0.5183862 0.2845612 0.1158942 -0.3377033 -1.20746 2.139915 0.3842723 0.2118737 0.454103 1.281176 1.326902 0.5321802 0.6591901 0.3813991 1.051116 -1.123489 0.912426 0.7921656 0.6148492 -0.1608321 0.2975856 -0.09538297 0.3704329 0.4575355 0.2838795 -0.007836797 0.0985672 0.1048655 -0.3932841 0.08186524 -0.3945684 -0.5135048 -0.3710048 -0.2458565 -0.4605335 -0.2057985 0.496787 -8.131384 1 -24
-0.7826954 0.2752357 0.08657834 0.262069 0.6259098 0.9699713 0.02679883 -0.209535 -1.292332 1.761795 0.03640262 0.1728067 0.0875645 1.251102 1.232109 0.503872 0.453597 0.3079724 0.6902677 -1.966303 0.824662 0.8312504 0.3528981 -0.4277599 0.2798577 -0.5671831 0.4630218 0.3934706 0.3493228 -0.009511796 -0.1254841 -0.03448348 -0.6153708 0.1685848 -0.6332803 -0.3396351 -0.5746693 -0.1230332 -0.6357555 -0.1982195 0.1986861 -4.07055 1 -20
-0.9129589 0.2414349 0.09578113 0.2250925 0.427078 1.09465 -0.1691936 -0.02824065 -1.133396 1.114416 -0.2727441 0.1799024 -0.2637981 1.224414 0.9420744 0.4403009 0.1880253 0.244904 0.439232 -2.251343 0.800774 0.9292946 0.170773 -0.5343029 0.3406582 -0.9113501 0.676814 0.4566871 0.4981793 0.01788207 -0.1645324 -0.09797183 -0.7532198 0.2570451 -0.7768848 -0.171064 -0.6966619 -0.02789768 -0.6958931 -0.07846684 0.1216131 -1.187093 1 -16
-0.4837967 0.1057677 -0.02854307 0.08187529 -0.009849128 0.7456356 -0.3988174 0.1412576 -0.8550864 0.2889895 -0.4583996 0.2357632 -0.5055135 1.081761 0.436504 0.2783838 -0.1343562 0.089443 0.1568154 -2.108858 0.7673563 0.9685371 0.06098318 -0.6028604 0.2511925 -1.089018 0.8880972 0.5577376 0.6256462 0.1149295 -0.07694936 -0.1430851 -0.6945723 0.2892991 -0.7222563 -0.05851208 -0.6527739 0.06298821 -0.5971693 0.04673966 0.1128626 1.231852 1 -12
0.314575 0.06475899 -0.4174418 0.05152148 -0.4439537 0.2779596 -0.5477577 0.3450917 -0.7013827 -0.4521875 -0.566511 0.2640619 -0.6515381 0.7943833 -0.1119551 0.01218684 -0.4375006 -0.1522176 -0.1461533 -1.873297 0.6434912 0.8755552 -0.01364665 -0.67605 0.1417718 -1.051847 0.9358486 0.5403097 0.635264 0.301382 0.06795441 -0.1913709 -0.5042791 0.2517734 -0.5136009 0.019168 -0.4848644 0.1185316 -0.4216292 0.03746856 -0.1615722 3.827722 1 -8
0.7835924 0.06662407 -0.8486369 0.07160691 -0.7472948 -0.238751 -0.64579 0.5184332 -0.6410005 -0.8352993 -0.5735282 0.2347095 -0.6610174 0.4663506 -0.4785678 -0.2759795 -0.625483 -0.3045064 -0.263121 -1.490281 0.50951 0.756666 -0.04259925 -0.5963827 0.1657898 -0.6888834 0.8606033 0.4467545 0.6289127 0.5553724 0.3228765 -0.1171005 -0.2957043 0.23431 -0.278963 0.1570975 -0.2860762 0.1144265 -0.2379026 -0.02218428 -0.5360895 4.837521 1 -4
0.1313394 -0.06460921 -0.98302 -0.06634165 -0.9843931 -1.031046 -0.7391196 0.4622349 -0.376107 -0.7921144 -0.349429 0.2364329 -0.4136907 0.1863283 -0.5740745 -0.4534733 -0.6402448 -0.1876536 -0.03356418 -0.7756585 0.4577105 0.7340599 0.02795887 -0.2514851 0.2765421 0.004956489 0.8031842 0.4358849 0.776919 0.8637472 0.7408771 0.2265365 -0.08483458 0.2689381 -0.06747258 0.464988 -0.09646085 0.08823285 -0.06389289 0.002091754 -0.484762 2.32437 1 0
-1.538694 -0.2347124 -0.8705528 -0.2661146 -1.236475 -2.051558 -0.7476777 0.1239003 0.0854181 -0.5809644 0.1725747 0.2237858 0.1551131 -0.09511054 -0.502273 -0.4726239 -0.5483236 0.1597169 0.4033794 0.1227774 0.4054084 0.7370772 0.1599058 0.2086865 0.5096235 0.7783026 0.7382597 0.4845377 1.039395 1.232105 1.236002 0.748817 0.1028109 0.2317467 0.1121375 0.8831425 0.05692986 0.06438823 0.06180212 0.0645185 -0.03281273 -2.124393 1 4
-2.859805 -0.2920788 -0.6984807 -0.3497072 -1.40904 -2.713977 -0.6125469 -0.2025633 0.3510132 -0.4349443 0.7438827 0.1465811 0.7741871 -0.4187981 -0.4467304 -0.3790311 -0.5031803 0.5562658 0.7993902 0.6098772 0.2417358 0.6394703 0.2907175 0.4876764 1.017832 1.054381 0.5369611 0.4603716 1.178329 1.648367 1.502849 1.157991 0.09797347 0.06142879 0.1337261 1.223629 0.05026415 0.00375739 0.04206604 0.03252758 0.108835 -4.631207 1 8
-2.69533 -0.2542458 -0.5213951 -0.3162143 -1.375193 -2.633691 -0.3521052 -0.231248 0.2647067 -0.4097166 1.006756 0.1482017 1.066934 -0.7517359 -0.5069038 -0.1926174 -0.5860799 0.8871477 1.056515 0.2673325 -0.008783081 0.4391997 0.4035642 0.4709534 1.663767 0.6484492 0.2129199 0.3322716 1.066132 2.040062 1.375826 1.308891 -0.1489092 -0.1443635 -0.06815746 1.410664 -0.1603291 -0.1107841 -0.1247496 -0.1223264 -0.3996449 -3.955726 1 12
-1.629421 -0.1804745 -0.4582156 -0.2192034 -1.245553 -2.272791 -0.05794798 -0.1202968 0.1022595 -0.4163126 1.059347 0.2138537 1.150474 -1.113178 -0.6681176 0.008629528 -0.7446619 1.103932 1.208658 -0.4306223 -0.2681525 0.2403884 0.5025218 0.3412561 2.13918 0.2412639 -0.08931437 0.158662 0.8521566 2.303644 1.16169 1.334182 -0.3704331 -0.2813531 -0.2931919 1.495238 -0.3601285 -0.2180074 -0.2592081 -0.285015 -1.06089 -2.574756 1 16
-1.261692 -0.07476062 -0.6507984 -0.07297142 -1.249013 -2.248192 0.1286712 -0.04126922 0.06302166 -0.2641782 1.214457 0.1944664 1.330519 -1.468259 -0.8302756 0.09527209 -0.8632128 1.224185 1.321735 -0.8519547 -0.4436315 0.1341157 0.6398201 0.2990825 2.398363 0.2764171 -0.2426485 0.04717504 0.7420027 2.413497 1.168316 1.383404 -0.4110589 -0.3202543 -0.3786691 1.581375 -0.4052154 -0.2539422 -0.2710944 -0.3597097 -1.512216 -2.180903 1 20
-2.196187 0.06302642 -0.9798256 0.1019731 -1.368922 -2.447873 0.196855 0.1045654 0.07622433 -0.05057211 1.441902 0.2291087 1.554113 -1.695524 -0.9032516 0.1112793 -0.95275 1.299489 1.368267 -1.061033 -0.4908573 0.1093511 0.7662687 0.3177706 2.479843 0.3083602 -0.2436049 0.05598725 0.7281741 2.42554 1.260527 1.401386 -0.4153793 -0.3251058 -0.4183753 1.705625 -0.4186726 -0.2532503 -0.2575029 -0.3833843 -1.878201 -1.365374 1 24
-3.303124 0.2128282 -1.155292 0.2772759 -1.352568 -2.365541 0.2842419 0.4307585 0.05148703 0.06438591 1.590156 0.5813888 1.687798 -1.793507 -0.8938553 0.193379 -1.115742 1.339434 1.345819 -1.280268 -0.5222058 0.07870574 0.7360323 0.3006219 2.363399 -0.05134649 -0.2681862 0.06507525 0.6541892 2.358539 1.172629 1.262637 -0.5355036 -0.4348842 -0.5655779 1.739637 -0.5437574 -0.3445751 -0.3153502 -0.4941175 -2.328903 0.8738847 1 28
-3.052065 0.4002864 -1.109187 0.4868477 -1.058572 -1.865935 0.464301 1.000444 -0.09433165 0.2181196 1.563125 1.214194 1.648013 -1.881444 -0.8544669 0.3222917 -1.315315 1.352674 1.355713 -1.511083 -0.6571844 -0.0341385 0.5560332 0.2607247 2.107131 -0.5665361 -0.4649645 -0.07680633 0.4739734 2.158205 0.9376217 0.982205 -0.7743869 -0.6997723 -0.8103119 1.605214 -0.7472738 -0.5751337 -0.4412768 -0.740654 -3.085653 3.309364 1 32
-1.592007 0.6876675 -1.055653 0.7978018 -0.6290082 -1.259135 0.7139448 1.544572 -0.3531233 0.3702411 1.400698 1.728424 1.440349 -2.030639 -0.8698408 0.4154279 -1.468057 1.370852 1.311936 -1.560274 -0.8593063 -0.1831893 0.3506744 0.2941476 1.690475 -0.837756 -0.7057891 -0.3303187 0.3095088 1.781251 0.8350422 0.6527928 -0.9523859 -0.9946246 -0.9605671 1.351126 -0.8610332 -0.841511 -0.5199136 -0.9424348 -3.988232 4.747821 1 36
-0.6899639 1.039281 -1.153193 1.172414 -0.3207128 -0.8756589 1.019737 1.658728 -0.5535104 0.3265309 1.356846 1.763505 1.310771 -2.159645 -0.9173967 0.5363045 -1.579292 1.431256 1.043411 -1.10817 -1.017631 -0.248564 0.1938799 0.4670186 1.076813 -0.7684485 -0.804083 -0.4877734 0.254731 1.313969 0.9572756 0.3468446 -0.938757 -1.159034 -0.9218693 1.02488 -0.8282843 -1.018816 -0.4638524 -0.9084221 -4.427355 5.056304 1 40
-1.139582 1.316931 -1.253636 1.466399 -0.1724847 -0.6888133 1.330924 1.464602 -0.6224045 0.1877794 1.473062 1.384906 1.352247 -2.164689 -0.8630474 0.8173342 -1.695493 1.536539 0.610845 -0.3667169 -1.075577 -0.2152873 0.05005288 0.6482434 0.4687572 -0.6313785 -0.8075073 -0.4399845 0.25142 0.9077627 1.062885 0.1037978 -0.8664906 -1.158282 -0.839056 0.7004679 -0.7810002 -1.055292 -0.3371797 -0.6692309 -4.338067 5.046317 1 44
-2.066063 1.396541 -1.248656 1.555528 -0.1274499 -0.599943 1.498159 1.237184 -0.6273097 0.04348551 1.480719 0.7221794 1.337561 -2.073976 -0.8094617 1.205893 -1.859187 1.633498 0.1459319 -0.003282959 -1.047212 -0.1418508 -0.1118876 0.6910013 0.1830483 -0.5726863 -0.7792213 -0.2500578 0.2342161 0.687054 1.068168 -0.01664675 -0.7989683 -1.03024 -0.7604183 0.5205515 -0.7361568 -0.9341986 -0.1597224 -0.3387479 -4.080915 5.533577 1 48
-2.544106 1.230598 -1.23969 1.39153 -0.2411232 -0.8368801 1.427433 1.02049 -0.5848433 -0.2716716 1.169667 -0.1394058 1.043057 -1.943632 -0.9420502 1.515053 -2.019122 1.676271 -0.2391917 -0.2556699 -0.9284748 -0.04012775 -0.1633295 0.6362854 0.3358468 -0.4240118 -0.6181766 0.04467134 0.2487028 0.7378044 1.142477 0.072993 -0.6391356 -0.7820684 -0.583627 0.5771016 -0.5859987 -0.6328642 0.1088067 0.03373909 -3.741276 5.983894 1 52
-2.468559 0.8600031 -1.176636 1.004252 -0.4374658 -1.450841 1.201318 0.8476716 -0.4592889 -0.7956638 0.5797392 -0.8328552 0.467467 -1.779353 -1.176519 1.739523 -2.122298 1.659602 -0.4918377 -0.8952048 -0.714549 0.1017876 -0.03076488 0.4903366 0.635946 -0.2960342 -0.3033722 0.3740721 0.336294 0.9539455 1.236709 0.2784706 -0.428903 -0.4567203 -0.3611591 0.7800522 -0.3749314 -0.2233636 0.3722162 0.4004459 -3.289073 6.245579 1 56
-2.354943 0.4442288 -1.008552 0.5629214 -0.5442867 -2.059933 1.004138 0.7837353 -0.3434362 -1.282199 0.0339038 -0.9752352 -0.08578278 -1.514014 -1.310951 2.044482 -2.215058 1.625099 -0.6118162 -1.769179 -0.4979148 0.2822015 0.1247204 0.1773857 0.7207665 -0.5190753 0.02353317 0.6175451 0.4510038 1.119125 1.15727 0.4347816 -0.2769505 -0.1642552 -0.2144252 0.98067 -0.2188202 0.163865 0.5319775 0.71751 -2.821795 6.787838 1 60
-2.66608 0.2115443 -0.815888 0.3122683 -0.5192522 -2.372401 0.9861908 0.8162733 -0.3514045 -1.54442 0.01889157 -0.5637235 -0.1220673 -1.126836 -1.275585 2.457255 -2.313411 1.619602 -0.5664462 -2.741469 -0.3747833 0.4576417 0.1246299 -0.2699144 0.5848419 -1.059965 0.2169088 0.7304073 0.4900476 1.147885 0.8673321 0.5014369 -0.2431021 -0.0473356 -0.202793 1.085947 -0.1964292 0.4015663 0.565753 0.9029356 -2.438489 7.312419 1 64
-3.347704 0.2077046 -0.6485765 0.3028316 -0.4031048 -2.354338 1.126357 0.7224047 -0.4168798 -1.652176 0.6658952 -0.09172344 0.5207222 -0.7797794 -1.159544 2.804692 -2.403462 1.620097 -0.5330635 -3.353765 -0.3525603 0.5561754 -0.07482865 -0.6505751 0.3613306 -1.590834 0.2161269 0.6547332 0.4076819 1.076768 0.4922021 0.4630201 -0.3331709 -0.1740929 -0.3455924 1.09873 -0.3256025 0.399718 0.4927373 0.8564537 -2.050421 7.995414 1 68
-3.965049 0.3116183 -0.538403 0.4164238 -0.233782 -2.111255 1.30438 0.4632058 -0.478761 -1.688534 1.470284 0.0428915 1.363478 -0.5494305 -1.025575 2.986667 -2.466817 1.623244 -0.6664259 -3.269813 -0.3875592 0.5978389 -0.3967988 -0.7725249 0.06621694 -1.855369 0.06850984 0.3733837 0.3025241 0.9592924 0.2492512 0.3865682 -0.4466596 -0.4313091 -0.5303509 1.106507 -0.4848122 0.2523284 0.4105646 0.6509231 -1.616582 8.509673 1 72
-4.283767 0.4920262 -0.4730415 0.6057131 -0.04575398 -1.961828 1.485965 0.294663 -0.4632801 -1.646952 1.982116 0.07652552 1.928789 -0.3515996 -0.8776089 3.087101 -2.454458 1.679866 -0.7595726 -2.604856 -0.4041244 0.6635816 -0.719334 -0.6630365 -0.3058723 -1.753481 -0.1305371 0.02502867 0.2618453 0.8231736 0.2759226 0.3889209 -0.4923143 -0.6807591 -0.6116688 1.129123 -0.5654442 0.08286738 0.3543916 0.4567165 -1.19318 7.348074 1 76
-4.334301 0.7729229 -0.4795598 0.8933674 0.187792 -2.131237 1.700542 0.3303653 -0.3188792 -1.490104 2.112983 0.2698721 2.095741 -0.1697301 -0.7075361 3.209855 -2.333922 1.759958 -0.6031153 -1.807974 -0.3716555 0.7726727 -0.9398913 -0.4982541 -0.5766884 -1.350559 -0.3320015 -0.235294 0.2514175 0.7458431 0.4847091 0.4960605 -0.4960785 -0.8900763 -0.6041284 1.157259 -0.6071622 -0.1132507 0.2800213 0.3195777 -0.8689051 4.419363 1 80
-4.158468 1.115991 -0.6623063 1.272734 0.5112998 -2.322737 1.916259 0.6535262 -0.2533217 -1.192757 1.738399 0.4755023 1.740043 -0.001342643 -0.4606294 3.374119 -2.129252 1.769378 -0.3437235 -1.588173 -0.3370817 0.9175422 -1.008208 -0.4552524 -0.5547926 -0.9937398 -0.5007522 -0.3537948 0.2374304 0.7859827 0.6235017 0.591466 -0.5789312 -1.053477 -0.6593077 1.210508 -0.7076539 -0.3247945 0.1655771 0.1900278 -0.9517685 2.303041 1 84
-3.76947 1.452356 -0.9603592 1.668953 0.8225554 -2.149448 2.07657 1.237285 -0.3699849 -0.9684023 0.8978186 0.5895492 0.9031444 0.1650866 -0.198427 3.512899 -1.95381 1.672982 -0.3018859 -2.194265 -0.3316687 1.06301 -1.013378 -0.6127115 -0.4243707 -1.037367 -0.5554095 -0.3963513 0.2431628 0.8197106 0.5050431 0.4890649 -0.7946529 -1.193331 -0.8460524 1.220063 -0.8884081 -0.4938543 0.02118637 0.07499742 -1.488801 3.50692 1 88
-3.131857 1.69757 -1.053832 1.943061 1.019819 -1.687209 2.181897 1.770195 -0.4274112 -1.023061 0.05830634 0.7580191 0.0659795 0.2357259 -0.09751441 3.555152 -1.912998 1.506662 -0.4670283 -3.057031 -0.3440913 1.11346 -1.099587 -0.8537851 -0.4286886 -1.350599 -0.4898037 -0.475284 0.2633 0.7095749 0.2289062 0.185384 -0.9983154 -1.368052 -1.02828 1.049784 -1.050158 -0.6375765 -0.09569955 -0.009767099 -2.025499 6.770293 1 92
-2.574289 1.762275 -0.8526145 1.985247 1.058689 -1.347544 2.210869 1.994264 -0.2857463 -1.214938 -0.2493444 0.9990981 -0.2431212 0.1349302 -0.19961 3.495412 -1.985871 1.374123 -0.5379159 -3.379885 -0.3455348 1.049731 -1.25338 -0.9310866 -0.451647 -1.515808 -0.4020636 -0.5671036 0.2604556 0.5682821 0.06673665 -0.08185157 -1.065644 -1.509737 -1.089268 0.7704676 -1.10998 -0.8164924 -0.1458684 -0.08188646 -2.221727 8.729423 1 96
-2.646013 1.629416 -0.637922 1.816427 0.8776085 -1.403969 2.157524 1.79421 -0.05130516 -1.369065 0.09008003 1.012879 0.06877387 -0.07215604 -0.4076387 3.420839 -2.084563 1.429289 -0.367598 -2.752213 -0.3286792 1.004239 -1.315678 -0.6936392 -0.2348239 -1.366595 -0.3308529 -0.532923 0.2858783 0.576759 0.1291124 -0.04966244 -1.004656 -1.468012 -1.03814 0.661676 -1.058091 -0.9599731 -0.1140534 -0.09481204 -1.976885 7.405281 1 100
-3.42328 1.358316 -0.6116497 1.534227 0.5793623 -1.872705 2.107366 1.195381 0.2083561 -1.410402 0.691787 0.6161134 0.6415544 -0.2790095 -0.5992761 3.438771 -2.133413 1.664774 -0.01770073 -1.55145 -0.3010702 1.05844 -1.183254 -0.2513449 0.3439865 -0.9906204 -0.2479485 -0.33742 0.4172358 0.7230741 0.3204927 0.2912452 -0.8645658 -1.285762 -0.9354735 0.810111 -0.916559 -0.9567058 -0.02649682 -0.03905452 -1.283535 3.51813 1 104
-4.348848 1.10968 -0.8926578 1.316401 0.374824 -2.570789 2.142166 0.6051096 0.4152635 -1.19164 1.047334 0.2843021 0.99707 -0.3971701 -0.6480731 3.502714 -2.055917 1.853982 0.4205018 -0.6790118 -0.2370113 1.141029 -0.9427624 0.09474364 1.01047 -0.5646325 -0.14618 -0.1147004 0.5679719 0.8770192 0.4965871 0.6598012 -0.7358833 -1.15139 -0.8634808 1.027023 -0.7641726 -0.8770189 0.02536494 -0.02827731 -0.5822999 -0.1774394 1 108
-4.64759 1.06957 -1.388901 1.343072 0.3110275 -2.983914 2.261788 0.4771071 0.4116403 -0.6861976 0.9658757 0.5914179 0.9363159 -0.4101742 -0.5701731 3.488666 -1.813278 1.8755 0.8350599 -0.7383142 -0.1397429 1.207653 -0.7584711 0.1435923 1.215031 -0.3641358 -0.02006158 -0.006955429 0.6182073 0.9043302 0.5526858 0.8171505 -0.655331 -1.126162 -0.813862 1.136385 -0.6618209 -0.8288345 0.04614422 -0.1000104 -0.5259227 -1.968488 1 112
-4.148928 1.171256 -1.641197 1.497615 0.2690309 -2.825592 2.346633 0.6914262 0.2886944 -0.2572598 0.6559872 1.33668 0.6390173 -0.3985553 -0.5566045 3.392613 -1.507023 1.825727 1.157373 -1.564293 -0.04134434 1.298729 -0.6348795 -0.02153882 0.9379396 -0.4512984 0.1271843 0.005809654 0.6351075 0.8620427 0.5018478 0.867654 -0.5764222 -1.11145 -0.7335526 1.190101 -0.5939746 -0.7592484 0.09916013 -0.1466527 -0.9612215 -2.866559 1 116
-3.514402 1.179961 -1.45673 1.501069 0.1182827 -2.407716 2.255021 0.7572632 0.3839987 -0.3499457 0.4087611 1.978684 0.3749723 -0.4308954 -0.7254209 3.268233 -1.350772 1.772967 1.40236 -2.407855 0.040584 1.421492 -0.4986322 -0.217233 0.7235765 -0.6325446 0.2098939 0.01149071 0.7114163 0.9475124 0.4055548 1.005731 -0.4617773 -1.067389 -0.6468072 1.321024 -0.5245329 -0.6293923 0.1507411 -0.1358426 -1.024128 -3.868479 1 120
-3.278471 1.055574 -1.150039 1.328991 -0.164857 -2.046548 2.01012 0.480337 0.7676704 -1.009967 0.3593079 2.145129 0.2980795 -0.5406325 -1.024382 3.099732 -1.482312 1.687443 1.390048 -2.575872 0.03522867 1.499693 -0.4115461 -0.3627238 0.8274254 -0.856846 0.1493047 -0.003315601 0.7747383 1.140443 0.2434486 1.083327 -0.3873131 -1.099541 -0.6460767 1.449537 -0.4988614 -0.569023 0.1059345 -0.183147 -0.4449946 -3.195094 1 124
-3.218564 0.9693931 -0.9659631 1.182544 -0.4354607 -1.850191 1.788776 0.1156224 1.148681 -1.908489 0.5580675 1.609209 0.455144 -0.6982862 -1.314845 2.881366 -1.798664 1.575314 0.9392273 -2.033802 -0.05995304 1.464881 -0.4109504 -0.4437835 1.111161 -1.051797 0.04117645 -0.07623398 0.7376917 1.317766 0.007490331 0.9086692 -0.5210906 -1.247549 -0.8315907 1.443418 -0.6529627 -0.6830478 -0.1005424 -0.3817766 0.2018681 0.2281676 1 128
-3.248445 0.948707 -0.9053978 1.101198 -0.566179 -2.00214 1.657593 -0.1392552 1.325507 -2.674535 0.8917754 0.6497584 0.7202421 -0.783695 -1.479187 2.669058 -2.070558 1.49162 0.3398869 -1.256169 -0.07375019 1.405717 -0.3921476 -0.4630892 1.461327 -1.064516 0.08065891 -0.1418434 0.6780992 1.523553 -0.2246371 0.6835751 -0.8134171 -1.367063 -1.115484 1.426423 -0.9421799 -0.8404586 -0.3723385 -0.6533402 0.5662472 3.968946 1 132
-3.865329 0.7894602 -0.9947748 0.8987245 -0.6173522 -2.678308 1.514478 -0.3237292 1.38995 -3.068523 1.071483 0.001109047 0.8551896 -0.7423574 -1.496237 2.493517 -2.17831 1.447905 0.02950652 -0.618858 0.06516695 1.463303 -0.3058578 -0.433002 1.771691 -0.9503211 0.3031435 -0.1155171 0.7084332 1.809396 -0.3626964 0.6619643 -0.9443755 -1.332476 -1.220403 1.55747 -1.074156 -0.8737592 -0.4890304 -0.8426614 0.837991 5.858284 1 136
-4.882473 0.5100408 -1.299406 0.6190181 -0.6307964 -3.55245 1.3905 -0.3785071 1.414346 -3.012408 1.000221 0.08588446 0.7902815 -0.6698769 -1.402204 2.369009 -2.147081 1.382448 0.1047192 -0.274755 0.2218511 1.602256 -0.2084068 -0.3897057 1.879061 -0.8378718 0.5185142 -0.01334188 0.7503671 2.100188 -0.3999053 0.791997 -0.8010023 -1.227826 -1.083427 1.772061 -0.9532266 -0.8533485 -0.4143644 -0.9557618 1.011837 6.073526 1 140
-5.166917 0.4018428 -1.704278 0.5547314 -0.5199816 -3.868759 1.451961 -0.2173394 1.274666 -2.695498 0.8211302 0.6693932 0.6536602 -0.6849207 -1.263503 2.300696 -2.085649 1.229343 0.3869541 -0.2902184 0.2817951 1.67157 -0.1508273 -0.442382 1.805717 -0.8042369 0.5420755 0.09970441 0.649483 2.338937 -0.4856583 0.9463056 -0.6607943 -1.204704 -0.9680384 2.017019 -0.8429664 -0.8994657 -0.3643828 -1.09418 0.788512 5.529226 1 144
-4.568936 0.519583 -1.989542 0.7253757 -0.3182778 -3.447182 1.674357 -0.008717787 0.9964629 -2.387388 0.7279759 1.235066 0.6309559 -0.7837229 -1.191002 2.220503 -2.078171 1.010324 0.7079365 -0.5461039 0.2746235 1.612194 -0.114212 -0.6459684 1.845515 -0.8996945 0.439676 0.1732872 0.4281049 2.53602 -0.7393116 1.107258 -0.747209 -1.251084 -1.065959 2.314984 -0.9460319 -0.9555635 -0.4873529 -1.242991 0.2772888 4.956905 1 148
-4.321093 0.6332386 -2.1034 0.863889 -0.2135053 -3.075216 1.820756 0.02857733 0.7615799 -2.061324 0.8355746 1.523027 0.8060223 -0.8203378 -1.216536 2.102961 -2.061666 0.8509777 1.152654 -0.8324572 0.3394318 1.544487 0.02518008 -0.8496649 2.275108 -0.9987161 0.4806632 0.2428886 0.2630761 2.773498 -0.9755579 1.384041 -0.9189563 -1.210293 -1.225721 2.626846 -1.117972 -0.8797231 -0.6535715 -1.259355 -0.07191458 3.532545 1 152
-4.933129 0.6038241 -2.088645 0.8207253 -0.240663 -3.274579 1.812175 -0.09201393 0.6183943 -1.660637 0.9897875 1.528295 0.9900535 -0.6811997 -1.217809 2.062674 -1.952639 0.8354346 1.759264 -1.01542 0.53198 1.60195 0.2920505 -0.8944864 2.947561 -0.8382776 0.7403868 0.378977 0.2737439 3.119262 -0.9100299 1.864396 -0.9255892 -1.005657 -1.202125 2.906808 -1.122375 -0.6505499 -0.6704826 -1.05633 -0.03153823 -0.2136374 1 156
-5.508676 0.5389629 -2.024308 0.7256758 -0.2592959 -3.489738 1.821758 -0.2167838 0.5677922 -1.462102 0.9573731 1.320667 0.9406586 -0.4630222 -1.097147 2.13962 -1.851176 0.8507611 2.084199 -0.9638752 0.6821033 1.697839 0.432835 -0.8626655 3.294884 -0.4707182 0.9551119 0.4573698 0.3649431 3.347773 -0.6199358 2.214468 -0.8292894 -0.7862421 -1.090932 3.007888 -1.031515 -0.464958 -0.6108224 -0.8118373 0.2770937 -3.764663 1 160
-5.196608 0.5643613 -1.951847 0.7334737 -0.2059631 -3.11829 1.907698 -0.1577809 0.5477057 -1.598863 0.7436906 1.239144 0.6800905 -0.3288325 -0.9003227 2.216369 -1.859504 0.7207536 1.893689 -0.7305534 0.6577834 1.6709 0.2790642 -0.9562137 3.037414 -0.3855568 0.9589429 0.3778934 0.3705634 3.230814 -0.4487034 2.082855 -0.8731262 -0.710288 -1.137253 2.812995 -1.075222 -0.4671977 -0.6612425 -0.7456186 0.4078644 -3.625092 1 164
-4.086513 0.6399422 -1.752555 0.8048893 -0.1325868 -2.2546 1.953793 0.175715 0.4751793 -1.735834 0.481069 1.615632 0.3659851 -0.2814229 -0.746999 2.21094 -1.845087 0.4267038 1.668064 -0.7204399 0.6090248 1.541474 0.04936357 -1.244025 2.545923 -0.8355666 0.8832236 0.3060895 0.2674498 2.963788 -0.5587921 1.738119 -1.051897 -0.7256649 -1.315705 2.520399 -1.260492 -0.5393945 -0.8039602 -0.8305971 0.09658055 -1.617214 1 168
-2.762719 0.6849986 -1.402817 0.8453177 -0.04814735 -1.337928 1.90254 0.6337255 0.4204545 -1.593116 0.2286379 2.263884 0.08230113 -0.2239337 -0.6938198 2.121258 -1.68067 0.05845106 1.744484 -1.166178 0.6781061 1.394289 -0.00801715 -1.622092 2.231643 -1.441542 0.8061571 0.3123501 0.09581388 2.788936 -0.8551184 1.532913 -1.208221 -0.7517433 -1.475827 2.340543 -1.441416 -0.5590116 -0.9269894 -0.9632641 -0.3649773 -0.6393295 1 172
-1.914114 0.6137567 -1.042372 0.762409 0.07490676 -0.8890965 1.756394 0.9861155 0.4393993 -1.190618 0.07263407 2.729566 -0.0480755 -0.1228246 -0.6669369 1.962391 -1.450566 -0.272672 1.998725 -1.510141 0.7711977 1.261808 0.07803033 -1.883445 2.213937 -1.779947 0.6799624 0.3016331 -0.09081119 2.713528 -1.105698 1.513307 -1.252312 -0.7841788 -1.520578 2.288754 -1.499768 -0.5288104 -0.9636745 -1.061479 -0.622429 -1.017858 1 176
-2.021861 0.4377492 -0.7815564 0.5744015 0.1903639 -1.072163 1.542859 1.129303 0.500331 -0.6431248 0.177174 2.837462 0.1263155 -0.03999506 -0.5954229 1.77172 -1.25825 -0.4650383 2.288809 -1.062835 0.7862087 1.193824 0.1769474 -1.880739 2.399928 -1.823555 0.5265267 0.2593706 -0.2061368 2.664151 -1.129808 1.629249 -1.193567 -0.8077602 -1.459909 2.315565 -1.435605 -0.4822984 -0.915428 -1.060955 -0.6235514 -2.56864 1 180
-2.679339 0.3392812 -0.6758628 0.4755841 0.2644935 -1.496282 1.350061 1.075839 0.5713267 -0.1493941 0.5423029 2.811882 0.5358849 -0.01265114 -0.5296736 1.599705 -1.128603 -0.5354819 2.453954 -0.09982066 0.7389586 1.19975 0.2191772 -1.688433 2.427852 -1.686645 0.3710974 0.1851231 -0.236401 2.556228 -1.009467 1.696201 -1.169336 -0.8458623 -1.442434 2.291161 -1.381709 -0.4654267 -0.8929476 -1.020153 -0.4907216 -4.069207 1 184
-3.177686 0.3969436 -0.7672105 0.5471695 0.3050183 -1.926786 1.285224 0.8097382 0.6576459 0.09074287 0.9705154 2.684836 0.9546365 0.02467585 -0.5547578 1.511862 -1.044839 -0.513684 2.397077 0.6759039 0.6638296 1.242786 0.2337944 -1.43969 2.252057 -1.400112 0.2442783 0.06178546 -0.2031434 2.439718 -0.8925207 1.617246 -1.239135 -0.9244259 -1.521898 2.136774 -1.405929 -0.4861292 -0.9671459 -1.044267 -0.1796874 -4.515139 1 188
-3.473202 0.5192584 -1.061985 0.6945787 0.2797079 -2.521078 1.380966 0.3841736 0.7915707 0.006397269 1.302744 2.158489 1.261575 0.08861503 -0.7076204 1.56435 -0.9948483 -0.3532022 2.287304 1.092876 0.559505 1.282239 0.3114188 -1.185018 2.445453 -0.9883095 0.1749398 -0.09215574 -0.1108 2.537026 -0.7732594 1.619464 -1.292012 -0.9915785 -1.578207 2.032993 -1.435471 -0.4854974 -1.065383 -1.158213 0.3684952 -4.876301 1 192
-3.694357 0.6276859 -1.432006 0.8341392 0.1487453 -3.136681 1.539578 0.1532396 0.8898978 -0.3392038 1.484272 1.546924 1.440634 0.09429615 -1.000612 1.68135 -1.031533 -0.1384266 2.318537 1.12494 0.4175675 1.253702 0.4414065 -1.05115 3.125725 -0.6941723 0.1069605 -0.2555145 -0.03484147 2.935562 -0.6879876 1.855992 -1.318598 -1.001539 -1.577437 2.219005 -1.447358 -0.4039074 -1.114374 -1.304038 0.6696594 -5.246109 1 196
-3.921689 0.6836653 -1.680141 0.9173702 -0.08327672 -3.297634 1.640483 0.3671192 0.8866421 -0.7374661 1.480788 1.548735 1.441099 0.06379383 -1.358302 1.738334 -1.170617 -0.004543304 2.446488 0.6357546 0.2613547 1.201518 0.4927236 -1.12203 3.608644 -0.7669612 0.05401798 -0.3855372 0.002785672 3.428683 -0.7121891 2.155272 -1.393752 -0.9487839 -1.599 2.62078 -1.492461 -0.2609261 -1.11717 -1.377073 0.380324 -4.626824 1 200
-4.239902 0.6698349 -1.692921 0.9134322 -0.3333639 -2.988435 1.667503 0.81432 0.9500139 -0.9993088 1.34447 2.011949 1.299497 0.0893315 -1.61693 1.776768 -1.353292 0.06774174 2.45482 -0.1337523 0.09875798 1.198964 0.3719443 -1.26001 3.501329 -1.032282 0.007302804 -0.4743891 0.05177345 3.754034 -0.7998537 2.309703 -1.493026 -0.899124 -1.661697 2.968389 -1.571068 -0.1525884 -1.113887 -1.363196 -0.01879363 -3.124138 1 204
-4.187818 0.6908109 -1.467397 0.9240669 -0.4619798 -2.604963 1.698304 1.320867 1.221742 -1.12502 1.258823 2.32115 1.237976 0.114076 -1.714967 1.886901 -1.522704 0.1095096 2.217082 -0.8874767 -0.1105638 1.139606 0.125559 -1.39935 3.103996 -1.226158 -0.2063684 -0.6296297 0.01776607 3.809487 -0.9557891 2.228605 -1.641984 -1.01855 -1.800774 3.115017 -1.722418 -0.1926085 -1.206114 -1.431894 -0.1964146 -0.8303366 1 208
-3.510582 0.9380203 -1.181716 1.158309 -0.4123536 -2.33885 1.819475 1.944934 1.579402 -1.193211 1.302682 2.542213 1.329631 0.07543195 -1.712901 2.025003 -1.61201 0.1189911 2.021893 -1.595804 -0.3507932 0.9687287 -0.0723743 -1.558136 2.845199 -1.253595 -0.6059586 -0.8936975 -0.1472131 3.706472 -1.183758 2.014755 -1.901154 -1.349288 -2.048813 3.087866 -1.986605 -0.4078967 -1.446449 -1.682813 -0.4104697 1.377503 1 212
-3.10979 1.365487 -1.036814 1.58603 -0.2900553 -2.186911 2.022752 2.532051 1.966333 -1.24954 1.45256 3.048766 1.50284 -0.004528089 -1.71473 2.115193 -1.632146 0.1264271 2.268808 -1.825627 -0.5628451 0.7757487 -0.1079987 -1.593835 2.899909 -0.9575298 -1.058621 -1.145781 -0.3198267 3.677526 -1.295566 1.951699 -2.162428 -1.710431 -2.299987 3.046879 -2.246098 -0.7037807 -1.701953 -2.010045 -0.6230202 1.210889 1 216
-3.488842 1.642121 -0.9632464 1.872324 -0.2041598 -2.195963 2.193517 2.73062 2.571971 -1.384112 1.798913 3.611695 1.866476 -0.1863764 -1.834661 2.162239 -1.728093 0.1150749 2.711195 -0.9607979 -0.8020704 0.540271 -0.09987406 -1.422365 3.08686 -0.3832457 -1.588313 -1.335456 -0.4811808 3.741287 -1.195828 2.037735 -2.285746 -1.982185 -2.469717 3.059453 -2.40001 -1.036043 -1.850724 -2.34359 -0.3656808 -0.7534321 1 220
-3.738986 1.622701 -0.821077 1.854725 -0.1296735 -2.471577 2.240038 2.587583 3.348434 -1.614021 2.286993 3.850712 2.38177 -0.4842235 -2.03261 2.221024 -1.962582 0.1011921 2.8748 0.6555984 -1.131237 0.2306764 -0.2030335 -1.16381 3.154224 0.1372536 -2.210049 -1.527842 -0.6830761 3.698173 -1.026114 1.996273 -2.278937 -2.206415 -2.555059 2.976212 -2.461432 -1.41085 -1.914665 -2.67179 0.3000228 -1.819373 1 224
-3.371391 1.475108 -0.5924833 1.685443 -0.02812687 -2.98911 2.208409 2.550074 3.96979 -1.777001 2.667884 3.872411 2.759039 -0.7607673 -2.175445 2.311788 -2.210198 0.1735024 2.842297 1.949242 -1.465449 -0.02830219 -0.3861765 -0.9537548 3.158257 0.4264877 -2.745838 -1.736127 -0.8624092 3.52223 -0.9010008 1.817218 -2.201967 -2.40716 -2.523177 2.733909 -2.440135 -1.721303 -1.900893 -2.930552 0.7213309 -1.735633 1 228
-3.134731 1.31357 -0.299874 1.479607 0.03669026 -3.63802 2.154302 2.741914 4.286634 -1.826359 2.948919 3.880377 2.990252 -0.92365 -2.26148 2.366997 -2.338969 0.3174333 2.824831 2.401235 -1.678625 -0.1353403 -0.552226 -0.8454513 3.219231 0.4786436 -2.996321 -1.933989 -0.8999137 3.35698 -0.8259281 1.674492 -2.101415 -2.554848 -2.391644 2.502202 -2.354995 -1.864153 -1.799587 -3.057748 0.6445898 -1.203696 1 232
-3.591878 1.16932 -0.1082661 1.297105 -0.029743 -4.31588 2.068528 2.849189 4.329307 -1.805631 3.26729 3.909903 3.26505 -1.013059 -2.29351 2.320467 -2.323735 0.4314155 2.850327 2.381188 -1.730325 -0.1164234 -0.6392322 -0.7909565 3.304797 0.3488367 -2.914555 -2.077793 -0.7428003 3.288805 -0.7701532 1.653894 -2.018764 -2.613394 -2.250924 2.454608 -2.250974 -1.859188 -1.683553 -3.0294 0.3873407 -0.6071922 1 236
-4.150544 1.105535 -0.2171454 1.239009 -0.1791316 -4.676664 1.994879 2.622675 4.17615 -1.704286 3.491643 3.874446 3.493398 -1.129857 -2.179048 2.204612 -2.240386 0.4125758 2.900831 2.378536 -1.707272 -0.07068868 -0.6233184 -0.7453627 3.42133 0.1465941 -2.682993 -2.114794 -0.5104571 3.30901 -0.7213106 1.729771 -1.968423 -2.589845 -2.176292 2.566131 -2.18542 -1.774429 -1.637646 -2.933896 0.2440042 -0.3919601 1 240
-3.837524 1.147074 -0.5255055 1.317024 -0.2110485 -4.296739 1.964064 2.248534 3.878066 -1.572574 3.414636 3.58577 3.416619 -1.328751 -1.932886 2.058699 -2.24219 0.1975639 2.839811 2.353718 -1.733968 -0.1197115 -0.5976126 -0.8017271 3.629287 -0.0006166805 -2.588482 -2.081331 -0.4194021 3.358807 -0.7256161 1.780266 -1.968779 -2.544532 -2.198617 2.692045 -2.191049 -1.670067 -1.672109 -2.894274 0.07239957 0.200769 1 244
-2.721202 1.310895 -0.7702455 1.50339 -0.02956761 -3.283706 1.977447 2.186775 3.444098 -1.39935 3.133115 3.062543 3.082598 -1.58496 -1.727615 1.86776 -2.399183 -0.1242697 2.619623 2.039795 -1.845284 -0.2887878 -0.6807754 -0.9938753 3.85745 0.03956262 -2.703661 -2.06225 -0.4936976 3.409042 -0.813463 1.790014 -2.043372 -2.478484 -2.289256 2.799428 -2.249338 -1.534922 -1.742535 -2.844255 -0.5184059 1.49892 1 248
-1.622348 1.51865 -0.8122618 1.715326 0.260669 -2.165137 2.043242 2.53676 3.00056 -1.13363 2.893013 2.625693 2.770929 -1.852606 -1.671014 1.652252 -2.618563 -0.4053832 2.34297 1.524969 -1.990657 -0.4941887 -0.8797823 -1.167674 3.851549 0.1521375 -2.872309 -2.109599 -0.5556073 3.422367 -0.9466953 1.827817 -2.154543 -2.3488 -2.386336 2.95436 -2.329989 -1.316835 -1.797812 -2.699256 -1.505442 2.743238 1 252
-1.135614 1.577409 -0.6439229 1.769213 0.4715274 -1.365348 2.058225 2.960554 2.719169 -0.9090954 2.72172 2.603769 2.566864 -2.082226 -1.708218 1.452229 -2.816254 -0.626972 2.142972 1.02996 -2.103309 -0.6514838 -1.14705 -1.197119 3.504989 0.1767086 -2.958312 -2.228905 -0.4851815 3.33913 -0.9826422 1.932334 -2.119535 -2.165224 -2.318056 3.169459 -2.282693 -0.9928228 -1.709579 -2.458412 -2.433274 3.324947 1 256
-1.682091 1.472779 -0.4120649 1.649776 0.4540291 -1.199603 1.900032 3.154202 2.632236 -1.003766 2.621245 3.072268 2.496182 -2.235752 -1.765831 1.308868 -3.029255 -0.8200274 2.140555 0.5684956 -2.182299 -0.704746 -1.447071 -1.065416 2.982451 0.3335243 -2.916729 -2.368984 -0.268512 3.210771 -0.7477344 2.194613 -1.765198 -1.959425 -1.915097 3.445165 -1.919018 -0.5395578 -1.337307 -2.024615 -2.929081 2.601903 1 260
-2.861044 1.327632 -0.3116711 1.494722 0.2868762 -1.745674 1.614552 3.04764 2.680151 -1.478526 2.719664 3.723081 2.658108 -2.347529 -1.840765 1.282566 -3.323635 -0.9525824 2.22414 0.2711618 -2.308442 -0.6841134 -1.74566 -0.8153874 2.426925 0.7257423 -2.840146 -2.497555 0.01039453 3.152057 -0.3199197 2.574801 -1.227629 -1.788498 -1.355505 3.752761 -1.367853 -0.03475263 -0.8063053 -1.451862 -2.908949 1.041145 1 264
-3.439768 1.214181 -0.3320456 1.382074 0.2237838 -2.597912 1.378065 2.852469 2.791565 -2.005152 2.905838 4.135777 2.881495 -2.453927 -1.927502 1.351833 -3.640454 -0.9812038 2.270436 0.3771675 -2.508136 -0.6888281 -1.905839 -0.553459 2.074223 1.013642 -2.864884 -2.604011 0.2081391 3.182237 0.009189498 2.856746 -0.8252094 -1.750765 -0.9837553 3.93023 -0.9749976 0.3157725 -0.4231272 -1.052247 -2.641085 -0.2005316 1 268
-3.314612 1.196276 -0.2662663 1.353985 0.3817261 -3.190606 1.322046 2.893012 2.904652 -2.327038 2.863351 4.170075 2.823553 -2.526007 -1.981297 1.442729 -3.862758 -0.9126036 2.349616 0.763534 -2.687173 -0.7334579 -1.790552 -0.3727221 2.163182 0.9962876 -2.948938 -2.633594 0.2902945 3.283458 0.08362717 2.981127 -0.706867 -1.819123 -0.8965806 3.905805 -0.8945513 0.4753688 -0.3074701 -0.9474636 -2.545115 -0.9789089 1 272
-3.439975 1.211019 0.0240782 1.337045 0.6393877 -3.232342 1.371766 3.129883 2.942842 -2.48556 2.525015 3.852829 2.469687 -2.575711 -1.988933 1.523558 -3.990766 -0.7938633 2.259648 1.12545 -2.779987 -0.7656382 -1.55218 -0.2898523 2.357794 0.7587557 -2.994392 -2.584153 0.3342998 3.418016 -0.03275388 2.968135 -0.8050268 -1.849851 -0.9749689 3.83004 -1.012932 0.5746635 -0.3494678 -1.001161 -2.753432 -0.4011165 1 276
-4.015014 1.129246 0.4361495 1.215784 0.8125792 -2.919888 1.380341 3.252676 2.856484 -2.570196 2.115922 3.373897 2.090016 -2.631832 -1.935716 1.607976 -4.05462 -0.6452532 1.814422 1.322685 -2.80854 -0.7523857 -1.444039 -0.292464 2.213538 0.348084 -2.996289 -2.522191 0.4176397 3.494979 -0.1999572 2.790618 -0.9584705 -1.83063 -1.057868 3.797991 -1.142185 0.6222853 -0.4199738 -1.111529 -3.06467 2.280446 1 280
-4.606289 1.002547 0.7131616 1.06572 0.8996602 -2.746019 1.39072 3.148993 2.71905 -2.601881 1.884523 3.157516 1.888946 -2.668957 -1.766558 1.769778 -4.028347 -0.4583749 1.47054 1.270797 -2.816589 -0.6878067 -1.452852 -0.3721751 2.008224 -0.1118807 -2.980193 -2.445461 0.5254363 3.538685 -0.3387725 2.612692 -1.035643 -1.84042 -1.075418 3.776222 -1.19737 0.5870911 -0.4716489 -1.235163 -3.216352 4.723851 1 284
-4.851499 0.9233461 0.6942255 1.002242 1.072897 -2.828773 1.513996 2.842386 2.648131 -2.465859 1.895751 3.25316 1.88537 -2.706067 -1.533573 2.026396 -3.934028 -0.2837152 1.532946 0.919484 -2.869583 -0.6476674 -1.449759 -0.5432859 2.172775 -0.4558664 -3.018047 -2.375917 0.5465075 3.589278 -0.5208569 2.520827 -1.089096 -1.929998 -1.161883 3.708709 -1.255933 0.4714283 -0.5593382 -1.382742 -3.102557 5.746244 1 288
-4.302427 0.9593439 0.5230963 1.081676 1.383604 -2.796355 1.725417 2.491827 2.615598 -2.102231 2.050662 3.227792 2.008742 -2.804842 -1.383658 2.258243 -3.837611 -0.1817434 1.681913 0.4184004 -2.977121 -0.7213223 -1.438609 -0.79164 2.607114 -0.6907076 -3.169442 -2.411428 0.4384764 3.577342 -0.816898 2.369743 -1.247181 -2.10307 -1.413299 3.551697 -1.430027 0.2472305 -0.7491329 -1.618447 -2.978756 6.748088 1 292
-3.040933 1.160819 0.4861671 1.312556 1.676909 -2.429517 1.926952 2.41559 2.4714 -1.665055 2.25072 2.970221 2.206071 -2.961047 -1.34313 2.354055 -3.749749 -0.1145555 1.728258 0.08081627 -3.064363 -0.8648144 -1.456062 -0.9749712 2.972363 -0.792241 -3.364594 -2.520136 0.2918489 3.512635 -1.099535 2.173907 -1.495914 -2.272849 -1.687512 3.349891 -1.681412 -0.03757641 -0.9868174 -1.922991 -3.256686 7.441335 1 296
-1.965634 1.440139 0.5511293 1.600453 1.795552 -1.89332 2.082532 2.730181 2.282116 -1.245539 2.35488 2.835578 2.326021 -3.150125 -1.310447 2.296458 -3.634372 -0.04681687 1.7781 -0.0009243922 -3.132073 -1.013511 -1.459501 -0.9756622 3.107354 -0.6484064 -3.532037 -2.587625 0.179906 3.440957 -1.208981 2.006803 -1.778885 -2.391517 -1.897586 3.189808 -1.910968 -0.3109108 -1.215565 -2.242605 -3.950027 7.5051 1 300
-1.387891 1.735997 0.3913822 1.918707 1.701199 -1.479953 2.22451 3.270844 2.244793 -0.8069606 2.317116 3.059371 2.287969 -3.404581 -1.259024 2.101642 -3.462577 -0.02483702 1.922572 -0.001058925 -3.224922 -1.196092 -1.403976 -0.8511576 3.078241 -0.246193 -3.687825 -2.569094 0.1030016 3.346581 -1.114681 1.818277 -2.035074 -2.500656 -2.077122 3.023642 -2.086775 -0.590442 -1.432555 -2.570141 -4.754794 7.622566 1 304
-1.083041 1.964132 0.02508584 2.180553 1.411816 -1.408738 2.266858 3.692046 2.330846 -0.4334305 2.379767 3.523157 2.339482 -3.740378 -1.313495 1.764058 -3.253293 -0.05197234 2.150132 0.1055323 -3.26492 -1.388804 -1.282165 -0.6396446 2.922355 0.282281 -3.813168 -2.440928 0.1085735 3.221081 -0.8220447 1.626779 -2.062719 -2.57726 -2.085675 2.771672 -2.090964 -0.8652279 -1.503952 -2.839902 -5.371552 7.267018 1 308
-1.410274 1.917214 -0.1940269 2.136695 0.9149081 -1.69302 2.076101 3.757275 2.482186 -0.3039371 2.638609 3.975288 2.586937 -4.088821 -1.551331 1.312284 -3.037633 -0.05046199 2.439781 0.5039778 -3.169884 -1.500046 -1.045914 -0.2995315 2.750072 0.7335422 -3.837881 -2.217353 0.2548991 3.18418 -0.3657337 1.614019 -1.713651 -2.550345 -1.755099 2.598019 -1.787513 -1.034708 -1.266042 -2.957294 -5.584645 5.539135 1 312
-2.358191 1.65367 -0.1863337 1.845471 0.3134197 -2.00777 1.797396 3.687773 2.66639 -0.3573012 2.90167 4.253723 2.833959 -4.372596 -1.852972 0.8686953 -2.796889 0.01325276 2.772941 1.077202 -3.026329 -1.546925 -0.7029471 0.04953073 2.789163 0.9166676 -3.776128 -1.997386 0.4462646 3.362432 0.0553839 1.811263 -1.21754 -2.461371 -1.290476 2.625794 -1.360676 -1.125847 -0.8811075 -2.981331 -5.545911 3.103877 1 316
-3.001806 1.433116 0.02412657 1.59343 -0.1029497 -1.955404 1.688236 3.74384 2.745423 -0.3477705 3.177701 4.433671 3.097589 -4.567051 -2.047126 0.6017044 -2.540938 0.1123676 3.0559 1.524285 -2.961765 -1.596855 -0.4235947 0.2095434 2.91746 0.7780264 -3.759879 -1.848745 0.5418018 3.556188 0.2149998 1.940372 -0.9301348 -2.432745 -1.026267 2.631899 -1.129863 -1.320331 -0.6454592 -3.063919 -5.617935 1.298944 1 320
-3.106502 1.210271 0.5139932 1.333783 -0.254844 -1.702818 1.660348 3.790289 2.698603 -0.2157958 3.554822 4.655172 3.481401 -4.667899 -2.113499 0.5709642 -2.348716 0.2310837 3.282471 1.747828 -2.963911 -1.61207 -0.2724491 0.2118325 2.926358 0.5377247 -3.830906 -1.686638 0.5626997 3.596884 0.2072197 1.933796 -0.8556736 -2.442494 -0.9393732 2.531727 -1.072807 -1.581778 -0.5326836 -3.174777 -5.783679 -0.07978127 1 324
-3.322315 0.8711569 1.017944 0.9554632 -0.3866086 -1.696382 1.422292 3.657833 2.616436 -0.06405722 3.800707 4.777068 3.755012 -4.711199 -2.157015 0.6110504 -2.247505 0.2845426 3.491991 1.650672 -2.93233 -1.564457 -0.07408784 0.146153 3.043905 0.4272284 -3.879234 -1.4409 0.5860434 3.707502 0.2600162 2.000612 -0.7940724 -2.365522 -0.8376195 2.55521 -0.9745794 -1.692245 -0.3964324 -3.165957 -5.861923 -1.0744 1 328
-3.683789 0.6372604 1.13122 0.7095131 -0.5804769 -1.963266 1.016071 3.551531 2.475401 0.1796968 3.683341 4.655674 3.666244 -4.726614 -2.192414 0.5533985 -2.085404 0.1804264 3.69586 1.152377 -2.802316 -1.521376 0.3074448 -0.01223699 3.49185 0.3863836 -3.8962 -1.196085 0.5923862 3.957392 0.3407582 2.127799 -0.6860406 -2.237168 -0.6909273 2.664252 -0.80143 -1.662693 -0.2485174 -3.03803 -6.018932 -1.112296 1 332
-3.771512 0.7010884 0.8567323 0.8021262 -0.6578519 -2.315594 0.757876 3.72863 2.265032 0.686768 3.285374 4.395542 3.280964 -4.673397 -2.144921 0.4344074 -1.729272 -0.003484899 3.846453 0.5675743 -2.608865 -1.517775 0.7343314 -0.197423 3.979688 0.3080054 -3.961069 -1.02631 0.5616704 4.080942 0.3360013 2.099467 -0.5773715 -2.222325 -0.5563242 2.537083 -0.6476089 -1.67538 -0.139413 -2.913203 -6.402806 -0.5039104 1 336
-3.599068 0.9159348 0.4505068 1.063914 -0.5896016 -2.558497 0.7694395 4.014732 2.18563 1.195542 2.779806 4.1397 2.746794 -4.535157 -2.071965 0.3838627 -1.38309 -0.157632 3.706181 0.227035 -2.462386 -1.502124 0.8876181 -0.2760021 4.011841 0.2522945 -4.033201 -0.9573075 0.5492964 3.929777 0.2798438 1.786589 -0.5165508 -2.391767 -0.4880812 2.11602 -0.572852 -1.812119 -0.1019934 -2.90355 -6.669814 1.19047 1 340
-3.386988 1.014244 0.1184663 1.197133 -0.5708418 -2.543054 0.8784384 4.026077 2.430836 1.198709 2.310755 3.93969 2.211895 -4.325614 -2.107896 0.4655766 -1.32271 -0.2494483 3.115535 0.162731 -2.3885 -1.400953 0.6037883 -0.2066584 3.416337 0.293667 -4.029289 -0.9992169 0.6142741 3.542037 0.246978 1.240973 -0.4718012 -2.638218 -0.4870301 1.600845 -0.5311773 -2.039924 -0.1055449 -3.006131 -6.258362 4.440371 1 344
-3.291039 0.9249663 -0.08733125 1.116033 -0.7400019 -2.448506 0.8716106 3.653372 2.888456 0.6676754 2.081913 3.738804 1.958877 -4.076649 -2.243292 0.5722561 -1.489268 -0.2689551 2.279503 0.3201668 -2.293572 -1.213215 0.06756566 -0.07399897 2.500901 0.4133143 -3.949901 -1.099777 0.7209058 3.05883 0.2897182 0.6679292 -0.3268802 -2.82809 -0.449949 1.168227 -0.4301521 -2.291878 -0.07003429 -3.137902 -5.110573 7.960001 1 348
-3.582765 0.8139238 -0.2126556 0.9859914 -1.043857 -2.601629 0.7446296 3.200034 3.291046 0.09558694 2.197786 3.654986 2.118347 -3.841798 -2.329089 0.5557079 -1.588634 -0.2499395 1.730327 0.6187946 -2.098342 -1.023938 -0.3377255 -0.007933617 1.884265 0.5165671 -3.820316 -1.192082 0.7781387 2.725757 0.3616211 0.298663 -0.1486007 -2.96551 -0.3666179 0.9022905 -0.3193293 -2.514946 -0.04444963 -3.299024 -3.90202 10.01672 1 352
-4.095201 0.8496227 -0.2336653 0.9850175 -1.296224 -2.927458 0.6519536 3.059356 3.457971 -0.05960717 2.448958 3.904252 2.40393 -3.594008 -2.192202 0.4468728 -1.408392 -0.2393468 1.930791 0.9742761 -1.775041 -0.8744125 -0.3492084 -0.04846239 2.017584 0.5450566 -3.641292 -1.209347 0.7792739 2.68426 0.2852506 0.2395956 -0.1883588 -3.095223 -0.4079069 0.7470642 -0.3610022 -2.695782 -0.1561341 -3.491579 -3.290378 9.219201 1 356
-3.862845 1.056852 -0.1510775 1.152956 -1.358451 -2.943182 0.6728987 3.194237 3.332148 0.112731 2.510337 4.214005 2.444879 -3.302271 -1.828373 0.3612585 -1.056046 -0.2774392 2.626045 1.299148 -1.374882 -0.7344845 -0.04825826 -0.2058293 2.704146 0.5838835 -3.455085 -1.107205 0.7372881 2.847074 0.0434867 0.3760897 -0.4661528 -3.209559 -0.6165102 0.5983059 -0.5851499 -2.876548 -0.3799309 -3.674556 -3.256842 5.902828 1 360
-2.833363 1.2711 -0.09325812 1.337278 -1.323035 -2.466783 0.7145513 3.21521 3.110353 0.1789978 2.26926 4.167343 2.182709 -3.041249 -1.470609 0.3024263 -0.8207632 -0.4276337 3.076768 1.451805 -1.021553 -0.6143928 0.2676063 -0.501767 3.341042 0.6946026 -3.282726 -0.9208248 0.6490549 3.025769 -0.1812115 0.4518842 -0.7065082 -3.289906 -0.8034773 0.4575346 -0.8199884 -3.089301 -0.5626948 -3.867 -3.250809 3.223607 1 364
-2.170751 1.290723 -0.1464146 1.328396 -1.372105 -2.002478 0.6192765 2.928989 3.090321 -0.001287894 1.888166 3.9483 1.817567 -2.863997 -1.278376 0.1821707 -0.7826332 -0.679639 3.071435 1.385627 -0.7354518 -0.523504 0.4192873 -0.8581831 3.606663 0.8308817 -3.029401 -0.7330501 0.5862615 3.104305 -0.310768 0.3824859 -0.7018236 -3.319704 -0.8128043 0.3813917 -0.8771029 -3.263023 -0.6221533 -4.037818 -2.819591 3.079842 1 368
-2.177591 1.107001 -0.3313069 1.113224 -1.466027 -2.144655 0.3848195 2.371986 3.259777 -0.1907488 1.654967 3.869252 1.585051 -2.681075 -1.183671 0.03850022 -0.7837853 -0.8710873 2.952968 1.336091 -0.4193915 -0.3953028 0.4247789 -1.106266 3.617069 0.9861397 -2.674791 -0.6034985 0.5687492 3.120937 -0.3714454 0.3081554 -0.5482525 -3.297906 -0.7261018 0.3841473 -0.7835362 -3.326956 -0.645879 -4.14061 -1.928125 3.714374 1 372
-2.244471 0.9150772 -0.5780246 0.908384 -1.389061 -2.780815 0.2109126 1.725733 3.327866 -0.1413005 1.721341 3.834781 1.640692 -2.388348 -1.060567 0.03645936 -0.6892546 -0.8762114 2.941344 1.511891 -0.08780904 -0.2002165 0.347488 -1.178321 3.602295 1.141015 -2.364557 -0.5376765 0.53696 3.147806 -0.4004999 0.3064803 -0.5272419 -3.258274 -0.7591481 0.4347134 -0.7709097 -3.345072 -0.8100734 -4.274124 -0.9439449 3.314627 1 376
-2.28285 0.9328003 -0.6330167 0.920769 -1.071698 -3.227843 0.2480772 1.296846 3.068857 0.1996565 2.029206 3.709677 1.995348 -2.041297 -0.8067809 0.1798454 -0.5142561 -0.7440193 2.994353 1.794767 0.139413 0.01335582 0.2307457 -1.172007 3.606323 1.254078 -2.182528 -0.5347812 0.5277891 3.094923 -0.425606 0.2617438 -0.7363046 -3.30007 -0.9270694 0.3980611 -0.9272381 -3.464758 -1.129083 -4.536362 -0.4380395 2.19896 1 380
-2.626503 1.166655 -0.3344107 1.115891 -0.6414993 -3.124388 0.4655452 1.107783 2.604093 0.7139338 2.507905 3.520758 2.536998 -1.712973 -0.3562742 0.3825283 -0.3269773 -0.5153806 3.096011 2.111179 0.2732634 0.2251886 0.1596954 -1.141645 3.607936 1.360253 -2.079477 -0.5966069 0.5885196 2.836256 -0.4308574 0.08093201 -1.013137 -3.51085 -1.09072 0.0988157 -1.12723 -3.763536 -1.434455 -4.900653 -0.3918641 0.5592339 1 384
-3.021687 1.520271 0.1985494 1.401561 -0.1994196 -2.617924 0.792675 1.094518 2.2232 1.257577 3.021149 3.47577 3.037356 -1.375319 0.2481522 0.6318218 -0.1057425 -0.2224003 3.429335 2.495963 0.4092517 0.4341439 0.2671718 -1.111782 3.770136 1.369955 -2.033432 -0.7061585 0.6144744 2.510909 -0.5099478 -0.1233964 -1.333872 -3.841511 -1.318272 -0.3959634 -1.398604 -4.172258 -1.711815 -5.313772 -0.4411018 -2.249572 1 388
-2.815613 1.960424 0.7373328 1.788691 0.254696 -1.881459 1.181643 1.523971 1.952469 1.896971 3.259283 3.794736 3.203583 -1.037063 0.8363848 0.8549433 0.226622 -0.04729474 4.007732 2.632576 0.5571713 0.6117178 0.557727 -1.22031 4.03646 1.139195 -2.048039 -0.8176458 0.5198866 2.365337 -0.830327 -0.2288298 -1.798248 -4.150212 -1.709997 -0.7825629 -1.840889 -4.55321 -2.08186 -5.745136 -0.8118165 -5.499061 1 392
-2.038492 2.373575 0.9997625 2.196415 0.683771 -1.121917 1.555207 2.271006 1.703461 2.606431 3.117188 4.191836 3.01501 -0.7780068 1.223574 0.953343 0.5783937 -0.1483131 4.361115 2.252543 0.6714966 0.7184862 0.8328463 -1.525197 4.01206 0.8447721 -2.086545 -0.8916153 0.3778934 2.425007 -1.290064 -0.2998393 -2.249565 -4.345248 -2.112683 -0.8883728 -2.302308 -4.820926 -2.480449 -6.126536 -1.499929 -6.959131 1 396
-1.336288 2.593109 0.7665379 2.455651 0.9809322 -0.6490822 1.81983 2.589334 1.574603 2.980451 2.812857 4.161214 2.725558 -0.6808773 1.331448 0.9280111 0.6599036 -0.4441849 4.037027 1.815193 0.6821073 0.7362076 0.8930723 -1.854575 3.587632 0.7340275 -2.138727 -0.9761382 0.2726763 2.50067 -1.614339 -0.5399073 -2.481726 -4.473658 -2.38244 -0.8841982 -2.586193 -5.022667 -2.762472 -6.375229 -1.786648 -4.648685 1 400
-0.9743639 2.634634 0.2180018 2.554993 1.148818 -0.5821664 1.971505 2.284569 1.68748 2.927588 2.507233 3.822044 2.470884 -0.7354943 1.237803 0.8799465 0.4296947 -0.6887785 3.344682 1.883328 0.5735657 0.7243998 0.7500778 -2.008658 3.091847 0.831633 -2.199102 -1.090278 0.2275823 2.38962 -1.742123 -0.9699554 -2.519018 -4.608002 -2.523597 -1.017505 -2.67924 -5.237918 -2.904408 -6.49583 -1.416322 -0.199255 1 404
-0.5973496 2.627514 -0.1914771 2.593292 1.277084 -0.7769096 2.060811 1.910701 1.984901 2.680741 2.228975 3.661421 2.25099 -0.8384508 1.068647 0.9174182 0.1584222 -0.7711693 2.948927 2.317666 0.413944 0.6941454 0.5875654 -2.039364 2.884288 1.019675 -2.282589 -1.193999 0.2030323 2.170305 -1.809537 -1.304303 -2.466168 -4.751552 -2.560816 -1.225618 -2.650049 -5.417036 -2.949827 -6.56913 -0.8290839 2.563994 1 408
0.146303 2.623242 -0.2354227 2.600842 1.370011 -0.9954259 2.072913 1.808355 2.294281 2.192544 1.979612 3.737899 2.046951 -0.9050114 0.8827331 1.063533 -0.0436491 -0.7833485 2.913204 2.664864 0.253409 0.5768519 0.5210454 -2.105465 2.984193 1.092062 -2.448567 -1.33777 0.1307585 2.084858 -1.902083 -1.369478 -2.392912 -4.872839 -2.521309 -1.290559 -2.567273 -5.456513 -2.939355 -6.644715 -0.382165 3.153417 1 412
0.7874546 2.63321 0.002384099 2.589252 1.376905 -1.052548 1.982477 1.92962 2.488654 1.585597 1.712847 3.850203 1.78673 -0.8569653 0.7290015 1.25775 -0.165034 -0.7695733 3.004055 2.524023 0.1706185 0.4518888 0.551344 -2.176479 3.192954 0.9759699 -2.601991 -1.525367 0.06611832 2.160653 -1.965154 -1.223696 -2.295557 -4.888187 -2.395191 -1.1801 -2.451578 -5.322777 -2.858464 -6.643672 -0.1765219 2.739164 1 416
0.3346948 2.599718 0.3942047 2.515714 1.28038 -0.965591 1.803993 2.197699 2.531486 1.286887 1.441406 4.091822 1.481434 -0.6682602 0.6419294 1.406824 -0.1251985 -0.7313099 3.302818 1.731033 0.2266367 0.4539907 0.6843752 -2.207073 3.442618 0.8128223 -2.555663 -1.569514 0.1117679 2.357301 -1.933745 -0.8722194 -2.137968 -4.730433 -2.157463 -0.9027567 -2.268539 -5.044566 -2.660984 -6.434076 -0.2714301 1.105243 1 420
-1.232672 2.492168 0.786581 2.36485 1.127091 -0.9455782 1.623682 2.420678 2.557626 1.309907 1.387289 4.562834 1.402221 -0.5002787 0.5758661 1.454857 -0.04879743 -0.709544 3.804257 0.972262 0.3029321 0.5325043 0.8253372 -2.232595 3.673692 0.8563839 -2.376271 -1.402248 0.2234262 2.619931 -1.807799 -0.3934319 -1.957478 -4.533445 -1.891507 -0.4991932 -2.056492 -4.776761 -2.411742 -6.102051 -0.4543773 -1.544093 1 424
-2.883219 2.49144 0.9563637 2.330915 1.026614 -1.049042 1.603054 2.312979 2.71285 1.294226 1.761347 4.834075 1.786849 -0.5393989 0.4588777 1.396058 -0.1556587 -0.6796653 4.053228 1.135581 0.2500376 0.5629352 0.7573972 -2.207207 3.700011 1.21602 -2.294415 -1.302164 0.3029517 2.719223 -1.62866 -0.1171217 -1.830342 -4.526771 -1.74195 -0.2586462 -1.933126 -4.711567 -2.257289 -5.89681 -0.3482913 -3.301718 1 428
-3.798326 2.643208 0.9054094 2.463043 1.084144 -1.13478 1.766074 1.961375 2.832865 1.103662 2.326545 4.623528 2.356047 -0.6806651 0.3438224 1.298334 -0.3544983 -0.5787668 3.852052 1.964404 0.1353753 0.5424531 0.4939541 -2.140953 3.540983 1.559911 -2.325475 -1.465038 0.3250989 2.578103 -1.52326 -0.1747936 -1.791869 -4.661232 -1.744132 -0.3407394 -1.928945 -4.778164 -2.226805 -5.873001 -0.04890087 -3.130009 1 432
-3.755865 2.731251 0.8205343 2.547688 1.294043 -1.15559 1.948656 1.776429 2.760914 0.9365492 2.507597 4.480049 2.519167 -0.6908697 0.3911285 1.280342 -0.3830566 -0.4681472 3.701124 2.485019 0.1133114 0.4938672 0.3189475 -2.194007 3.497805 1.583259 -2.364012 -1.712519 0.2805764 2.410999 -1.594252 -0.3096667 -1.851513 -4.706067 -1.840382 -0.521617 -1.982521 -4.779354 -2.261144 -5.92175 0.06565376 -2.452451 1 436
-2.886743 2.750889 0.7569717 2.594321 1.577766 -1.042254 2.088169 1.986629 2.543173 1.04836 2.120096 4.806436 2.126065 -0.5630479 0.6004108 1.38467 -0.1951778 -0.4571369 3.883597 2.303293 0.186262 0.3959804 0.3120648 -2.395945 3.510098 1.461877 -2.420845 -1.816484 0.1910355 2.341117 -1.765463 -0.3041444 -1.992103 -4.591179 -1.958943 -0.5465953 -2.059321 -4.65566 -2.311239 -5.913509 -0.2506492 -2.842854 1 440
-2.023517 2.824124 0.7307429 2.711883 1.854027 -0.8283488 2.19468 2.41088 2.278892 1.411602 1.683011 5.077897 1.695837 -0.4279836 0.7759363 1.522268 -0.001688383 -0.5092906 4.015265 1.750457 0.2572627 0.2916571 0.2823802 -2.576753 3.304384 1.398859 -2.479969 -1.738076 0.1476414 2.334778 -1.913464 -0.1548441 -2.134596 -4.370247 -2.037264 -0.3313275 -2.166206 -4.421813 -2.32661 -5.726042 -0.876087 -3.910326 1 444
-2.180527 2.866653 0.6934525 2.775352 2.007527 -0.9213606 2.163685 2.625353 2.141424 1.635765 1.716364 4.749214 1.719424 -0.3879989 0.7818609 1.548357 -0.01904092 -0.5589131 3.868593 1.240264 0.2499933 0.207708 0.1626633 -2.640973 3.241542 1.445936 -2.480411 -1.607268 0.1814703 2.402721 -1.959855 0.0460864 -2.152469 -4.127764 -2.025284 -0.003746033 -2.231229 -4.146617 -2.271763 -5.423044 -1.268886 -4.064346 1 448
-2.878538 2.777488 0.5032957 2.68064 2.004336 -1.538394 1.943588 2.47808 2.136632 1.446911 2.004571 4.095195 2.004029 -0.4811077 0.6401895 1.418011 -0.2181021 -0.6349474 3.672298 1.016625 0.1664093 0.09060071 0.0415936 -2.606561 3.643906 1.721212 -2.455228 -1.568104 0.2185087 2.548915 -1.832055 0.2266088 -1.953502 -3.944357 -1.843587 0.2339625 -2.086538 -3.932522 -2.112001 -5.194876 -1.213865 -3.219331 1 452
-2.727506 2.593948 0.2305598 2.503516 1.976474 -2.301336 1.64882 2.299116 2.111072 1.066766 1.970079 3.657163 2.021723 -0.6168688 0.4395703 1.277186 -0.4202893 -0.7402281 3.504141 1.107661 0.08976185 -0.05037351 -0.04462558 -2.496436 3.994088 2.017029 -2.43827 -1.593456 0.2129032 2.655968 -1.646957 0.3016272 -1.683292 -3.845571 -1.573867 0.3492432 -1.808009 -3.825928 -1.913834 -5.124417 -1.098305 -2.078828 1 456
-1.638103 2.437795 0.02157701 2.387073 1.993919 -2.760657 1.457604 2.264445 2.034565 0.6005424 1.566738 3.48234 1.697894 -0.6639001 0.2141336 1.30482 -0.6106779 -0.7934547 3.112183 1.283359 0.06286357 -0.1050858 -0.1484856 -2.347638 3.757235 1.855624 -2.354726 -1.577944 0.2236178 2.579579 -1.661276 0.1561881 -1.606857 -3.784913 -1.465511 0.392797 -1.697279 -3.774233 -1.840296 -5.099344 -1.105765 0.1493433 1 460
-1.040176 2.357122 -0.1375077 2.352469 1.973032 -2.894851 1.457428 2.010829 1.964682 -0.2969536 1.277448 3.240768 1.460293 -0.5979795 -0.08244805 1.503916 -0.9561349 -0.7149367 2.29986 1.413077 0.04254027 -0.02049298 -0.3858654 -2.14277 2.986763 1.311704 -2.142202 -1.549523 0.3408734 2.286001 -1.842652 -0.1794546 -1.651163 -3.691502 -1.496094 0.3747016 -1.72929 -3.657643 -1.836344 -4.890503 -0.8355248 4.118459 1 464
-1.728116 2.325037 -0.1579655 2.338594 1.94617 -2.936546 1.613302 1.554338 1.937226 -1.406664 1.279286 2.931985 1.483732 -0.4279564 -0.3960128 1.835172 -1.43702 -0.5155306 1.364561 1.596418 0.02741352 0.1559669 -0.7951362 -1.832933 2.002296 0.7972292 -1.861413 -1.589716 0.5632208 1.802024 -1.927296 -0.5199848 -1.573479 -3.589438 -1.427108 0.2386594 -1.656961 -3.430236 -1.687609 -4.431949 -0.2401984 7.77664 1 468
-2.830951 2.372417 0.1597993 2.371283 2.068502 -2.974684 1.839628 1.498951 1.942286 -1.915355 1.263789 2.999393 1.448264 -0.1443621 -0.5240417 2.314438 -1.747079 -0.2970455 0.9783922 1.680841 0.07992144 0.370312 -1.1991 -1.529616 1.222065 0.3918957 -1.603196 -1.671287 0.7953127 1.274255 -1.85843 -0.665243 -1.399857 -3.55709 -1.234958 -0.03889352 -1.482032 -3.17337 -1.404519 -3.88609 0.08855083 7.976923 1 472
-3.572231 2.448249 0.722937 2.407522 2.330951 -2.984391 2.003752 1.783794 1.991942 -1.780503 1.093277 3.436791 1.216381 0.1840376 -0.4090829 2.835659 -1.779418 -0.1359087 1.284622 1.454548 0.1950669 0.5463564 -1.418581 -1.393566 0.990019 0.09809995 -1.412674 -1.760676 0.9572431 0.9587058 -1.775763 -0.5378029 -1.218424 -3.574079 -1.020351 -0.2795003 -1.296933 -2.983634 -1.137962 -3.442143 0.1564289 4.817233 1 476
-3.937736 2.474659 1.119548 2.398298 2.605119 -2.95103 2.067923 1.786743 2.058637 -1.611606 0.9141861 3.690365 0.9880219 0.468904 -0.1784662 3.250381 -1.744069 -0.006088777 1.732087 1.224606 0.3020916 0.6271126 -1.484381 -1.348693 1.189226 0.05684031 -1.323802 -1.88185 1.035656 0.824233 -1.721806 -0.3301967 -1.012569 -3.578308 -0.8217828 -0.4236873 -1.102054 -2.913895 -0.9217224 -3.194244 0.4918447 1.181446 1 480
-3.530456 2.575498 1.136628 2.501098 2.872957 -2.754778 2.175875 1.547207 2.013561 -1.440865 0.7725974 3.665291 0.8251911 0.7030067 0.1505429 3.552414 -1.70793 0.1308048 1.944069 1.182801 0.3702497 0.6479221 -1.498877 -1.297009 1.338734 0.2105194 -1.399852 -2.039772 1.012751 0.5629349 -1.708363 -0.3882419 -0.9042244 -3.645476 -0.7541587 -0.7687004 -0.9994538 -3.026351 -0.8071581 -3.157814 0.9199182 -0.9830473 1 484
-2.084188 2.82096 0.9306483 2.779662 3.183148 -2.472843 2.370588 1.50672 1.842611 -0.919458 0.6918716 3.735088 0.7303741 0.8971159 0.5953048 3.761519 -1.570063 0.2587516 1.957918 0.9662558 0.4030865 0.6446325 -1.519831 -1.367163 1.170748 0.2130574 -1.623038 -2.251635 0.8593345 0.07614699 -1.83869 -0.8228288 -1.028518 -3.893537 -0.9246676 -1.402968 -1.116395 -3.324562 -0.9044458 -3.336802 0.9783065 -0.9721941 1 488
-0.8184461 2.978165 0.6895053 2.970289 3.450405 -2.509558 2.478239 1.558109 1.73877 -0.2278636 0.7749092 3.837859 0.8162317 1.012234 1.008935 3.847554 -1.379345 0.3650856 1.813125 0.493652 0.4043857 0.6206155 -1.557647 -1.532753 0.8677499 0.008400332 -1.783835 -2.508104 0.6704103 -0.4335246 -2.041251 -1.362351 -1.219809 -4.219757 -1.190942 -1.951628 -1.304139 -3.620058 -1.108274 -3.628896 0.9424061 1.051032 1 492
-0.8265444 2.927504 0.5672033 2.929587 3.573471 -2.776147 2.428305 1.453744 1.775911 0.1397537 0.9167904 3.714664 0.991895 1.038813 1.274976 3.839981 -1.300919 0.4284046 1.548618 0.1338031 0.378356 0.6144547 -1.576063 -1.558371 0.6652139 -0.06149012 -1.760572 -2.720002 0.5912769 -0.7982922 -2.113079 -1.7468 -1.277914 -4.41188 -1.324488 -2.223989 -1.352133 -3.769762 -1.206482 -3.870376 1.128987 3.613534 1 496
-1.301208 3.01561 0.682281 2.999211 3.747352 -2.609587 2.439689 1.466088 1.72072 0.01863224 0.8966306 3.540384 0.9982153 1.089481 1.441453 3.897044 -1.403116 0.4391607 1.371913 0.02995643 0.3233529 0.6812584 -1.570326 -1.432653 0.60987 0.09865675 -1.715814 -2.855492 0.6084526 -1.065511 -2.071909 -1.993473 -1.291952 -4.467966 -1.320014 -2.451397 -1.340558 -3.901977 -1.232607 -4.071416 1.167448 4.814039 1 500
-1.620343 3.5557 0.9014019 3.506003 4.193714 -1.901487 2.751391 1.75651 1.450539 -0.3756113 0.7860094 3.361974 0.8314989 1.26394 1.60728 4.173244 -1.60817 0.5006093 1.402036 0.1081042 0.279073 0.855126 -1.551988 -1.256432 0.7258045 0.4180565 -1.748263 -2.956821 0.6535429 -1.310166 -2.000278 -2.14366 -1.389484 -4.53342 -1.319486 -2.768102 -1.418712 -4.125685 -1.327535 -4.300154 0.9144679 3.659676 1 504
-2.200933 4.272787 1.044622 4.191963 4.763637 -1.185685 3.273457 1.934788 1.148647 -0.7226339 0.7942752 3.024722 0.7229717 1.487283 1.803848 4.569637 -1.771575 0.6671801 1.486739 0.3456034 0.3085561 1.105905 -1.490674 -1.047973 0.915774 0.8101456 -1.74572 -3.03416 0.7248104 -1.510343 -1.892582 -2.23274 -1.536438 -4.64403 -1.393102 -3.098696 -1.577953 -4.384532 -1.494942 -4.539274 0.7835215 1.323095 1 508
-2.752176 4.654666 1.180067 4.554464 5.151127 -0.7989161 3.656903 1.754758 0.9015656 -0.8533677 0.9038076 2.779279 0.7672331 1.652576 1.982844 4.85735 -1.775744 0.8425411 1.47136 0.5235413 0.4140677 1.331808 -1.370364 -0.8870116 0.8665592 0.9848795 -1.607702 -3.05934 0.8396073 -1.677304 -1.808517 -2.386882 -1.654259 -4.708742 -1.482689 -3.409638 -1.716171 -4.612794 -1.629882 -4.723572 0.8753995 -0.03143172 1 512
-2.570611 4.551937 1.305742 4.447245 5.204479 -0.8173918 3.690344 1.422182 0.6486138 -0.8265445 0.958074 2.816309 0.8285391 1.765225 2.103857 4.982498 -1.642624 0.9697412 1.306326 0.3386591 0.5551655 1.464909 -1.271067 -0.8493788 0.4203544 0.8337088 -1.353386 -3.012812 1.013438 -1.861503 -1.782967 -2.627441 -1.634738 -4.672431 -1.438601 -3.657397 -1.690807 -4.764282 -1.595937 -4.775328 0.9683496 0.2495409 1 516
-1.671203 4.153543 1.401882 4.048688 5.084822 -1.077685 3.487111 1.259244 0.4649756 -0.7731583 0.7919127 2.947318 0.688983 1.832818 2.193902 5.049587 -1.498626 1.030933 0.9760271 -0.2631815 0.6707913 1.477896 -1.312539 -0.9404379 -0.2133643 0.4908729 -1.173231 -2.899737 1.156826 -2.037954 -1.775039 -2.891098 -1.456967 -4.606852 -1.24307 -3.78379 -1.512625 -4.854413 -1.415411 -4.753664 0.9580005 1.987933 1 520
-0.8014667 3.691929 1.540873 3.58137 5.039297 -1.321039 3.26256 1.405246 0.4368477 -0.7766606 0.3404583 2.998937 0.2638283 1.799891 2.316552 5.120765 -1.391716 0.993103 0.5105296 -1.138823 0.6772426 1.364141 -1.464079 -1.093033 -0.7319237 0.08572596 -1.239412 -2.726553 1.142016 -2.169253 -1.741792 -3.210297 -1.261016 -4.591224 -1.042661 -3.849402 -1.337321 -4.960137 -1.267332 -4.789544 0.7772129 5.556104 1 524
-0.6118107 3.333096 1.485524 3.235744 5.003744 -1.613445 3.117486 1.558245 0.5169519 -0.8790125 -0.1285652 2.794894 -0.1787914 1.622554 2.423684 5.107399 -1.278065 0.9148614 -0.01473778 -1.814355 0.5530681 1.199779 -1.550272 -1.099861 -0.9512886 -0.1033003 -1.474379 -2.554455 1.029753 -2.259793 -1.610117 -3.601424 -1.122298 -4.625234 -0.9142061 -3.960674 -1.206176 -5.135334 -1.203111 -4.936717 0.5686097 10.36198 1 528
-0.6684239 3.145728 1.221918 3.089689 4.848173 -1.873707 3.058627 1.438756 0.6670864 -0.9630148 -0.2380131 2.326626 -0.2474068 1.345131 2.37662 4.930147 -1.128095 0.8926722 -0.4174255 -1.810512 0.3964969 1.0638 -1.484237 -0.855504 -0.8883172 0.09624901 -1.736561 -2.498634 0.9390839 -2.31099 -1.415878 -3.941723 -1.085459 -4.70987 -0.9151546 -4.128764 -1.156005 -5.387856 -1.19463 -5.205941 0.5545921 13.87067 1 532
-0.2249571 3.124791 1.214847 3.09584 4.657755 -1.716382 3.04694 1.274926 0.8271656 -0.7990288 0.08112688 1.945931 0.1259654 1.074035 2.180688 4.644549 -0.9529156 0.9046661 -0.5646791 -1.304455 0.325161 0.9485736 -1.364344 -0.5189171 -0.8126497 0.3351004 -1.990022 -2.59397 0.8678305 -2.379601 -1.331678 -4.153102 -1.231074 -4.854784 -1.093791 -4.295776 -1.277752 -5.669695 -1.306294 -5.508533 0.5600334 14.70846 1 536
0.1770743 3.2079 1.543198 3.164494 4.494601 -1.179576 3.015867 1.316224 0.9354959 -0.3619931 0.5427974 1.883975 0.6195006 0.8653049 2.019589 4.321826 -0.7465479 0.888325 -0.577045 -0.9281083 0.3668925 0.86374 -1.255474 -0.2621548 -0.9617999 0.2225741 -2.191324 -2.730642 0.8303532 -2.497495 -1.380181 -4.307646 -1.444234 -5.009152 -1.316555 -4.424838 -1.485152 -5.915824 -1.526326 -5.712346 0.3840784 14.55058 1 540
-0.4577835 3.307321 1.867435 3.226987 4.314643 -0.6929924 2.942393 1.493348 1.007397 0.07603164 0.840496 1.994336 0.9271981 0.6764917 2.015712 3.998662 -0.5362737 0.8796444 -0.6627973 -1.00563 0.4380259 0.84495 -1.131052 -0.06799141 -1.313944 -0.08201885 -2.25306 -2.788805 0.8818828 -2.586499 -1.391309 -4.468556 -1.530913 -5.122202 -1.415533 -4.504441 -1.601377 -6.07996 -1.70523 -5.803828 0.1035714 15.36564 1 544
-1.642021 3.457409 1.906454 3.361053 4.126882 -0.4844068 2.910384 1.59051 1.019958 0.2147956 1.029012 2.138326 1.126074 0.4360051 2.040974 3.714545 -0.4115078 0.9336803 -0.8234924 -1.206178 0.4449614 0.8418572 -1.041656 0.1875795 -1.680994 -0.2515002 -2.188886 -2.788627 0.9804841 -2.622238 -1.28024 -4.61949 -1.545779 -5.229143 -1.453431 -4.548832 -1.637241 -6.154552 -1.813898 -5.876149 -0.1813012 17.02061 1 548
-2.177322 3.684544 1.684225 3.608917 3.995131 -0.5000047 2.983136 1.51499 1.050098 0.08199296 1.254969 2.320266 1.341967 0.1513406 1.943602 3.498482 -0.3484553 1.040448 -0.8365359 -1.097652 0.4023984 0.7751434 -0.9966835 0.5199657 -1.806608 -0.2116475 -2.124774 -2.786154 1.034171 -2.647056 -1.118185 -4.709064 -1.618296 -5.35177 -1.566134 -4.605255 -1.709913 -6.211145 -1.936188 -6.003579 -0.3351373 17.81173 1 552
-1.702648 3.835526 1.428414 3.792094 3.930758 -0.6892626 3.095617 1.342056 1.188239 -0.1001219 1.446557 2.38138 1.502421 -0.1250702 1.77359 3.355268 -0.2860771 1.160661 -0.6656735 -0.6351459 0.3557524 0.6226461 -0.9474882 0.8437749 -1.594464 0.01055503 -2.142766 -2.778264 1.017788 -2.654524 -0.9719355 -4.706079 -1.719737 -5.408875 -1.709303 -4.669387 -1.814341 -6.286377 -2.059425 -6.132835 -0.3035582 17.02025 1 556
-0.6385968 3.829337 1.120222 3.821399 3.868205 -0.9854531 3.151658 1.058407 1.218512 -0.3066489 1.492091 2.131028 1.536374 -0.353846 1.643014 3.272022 -0.2744708 1.26972 -0.6093395 -0.1386423 0.3292479 0.4419215 -0.958015 1.142477 -1.324316 0.3221272 -2.202376 -2.747725 0.9958313 -2.60733 -0.8249447 -4.637539 -1.754062 -5.311533 -1.749222 -4.657581 -1.837561 -6.284622 -2.108418 -6.121916 -0.2205888 16.01112 1 560
0.06496782 3.782278 0.8150303 3.802606 3.788003 -1.065707 3.157521 0.6981714 0.9848768 -0.5120395 1.347957 1.70012 1.392618 -0.4503445 1.648588 3.271783 -0.2610747 1.401661 -0.7789277 -0.1036303 0.3740807 0.3403136 -1.047707 1.44244 -1.346017 0.6490791 -2.196603 -2.651356 1.057403 -2.547619 -0.5843832 -4.528981 -1.638865 -5.089186 -1.606427 -4.574883 -1.691203 -6.151027 -2.018028 -5.903944 -0.1672811 15.1958 1 564
-0.3282652 3.730419 0.8990715 3.731621 3.707645 -0.8444706 3.190175 0.4163119 0.7014434 -0.5335842 1.166388 1.502713 1.188025 -0.3415016 1.850499 3.40094 -0.05826703 1.606169 -0.7417601 -0.727842 0.5655959 0.3777442 -1.034624 1.678195 -1.521105 1.050037 -2.046271 -2.416178 1.21733 -2.522455 -0.2024697 -4.284056 -1.379179 -4.814577 -1.306887 -4.496499 -1.408959 -5.927214 -1.782338 -5.54093 -0.05379802 12.33295 1 568
-1.361914 3.524597 1.376801 3.459621 3.549314 -0.7563406 3.177688 0.205596 0.5380821 -0.4011355 1.125317 1.745137 1.102852 -0.1199095 2.133781 3.544332 0.3608566 1.801171 -0.1925247 -1.694936 0.9285961 0.5220672 -0.7762219 1.72984 -1.424497 1.416377 -1.760995 -2.022755 1.397408 -2.424195 0.1810645 -3.834934 -1.083262 -4.467117 -0.9780683 -4.390528 -1.104932 -5.620308 -1.498022 -5.106719 0.1661897 7.032722 1 572
-1.889077 3.175662 1.75853 3.059646 3.244619 -0.9559643 3.004395 0.11116 0.3657556 -0.3135393 1.146558 2.169004 1.084456 0.006545327 2.263599 3.482667 0.8194149 1.835105 0.466362 -2.417304 1.333261 0.6493852 -0.3697115 1.597627 -1.034334 1.339496 -1.484339 -1.591347 1.468669 -2.226272 0.2980444 -3.440052 -0.9506357 -4.072851 -0.8139231 -4.261531 -0.9342278 -5.295722 -1.334634 -4.707135 0.1443948 3.268141 1 576
-1.49738 2.91389 1.813934 2.801346 2.862261 -1.235239 2.765032 0.2901307 0.08949184 -0.2446892 1.216219 2.549121 1.157297 -0.04826268 2.177325 3.230302 1.161175 1.734662 0.8176172 -2.504141 1.622975 0.6680014 0.02292304 1.401296 -0.6996118 0.631499 -1.366786 -1.262419 1.369502 -2.140572 0.02281475 -3.405354 -1.099385 -3.767002 -0.8999547 -4.269353 -1.00566 -5.100379 -1.371147 -4.469467 -0.426548 3.494558 1 580
-0.8920778 2.761952 1.668787 2.682229 2.507556 -1.508762 2.569745 0.5263037 -0.1783772 -0.07084166 1.383258 2.657883 1.358897 -0.1998402 2.00244 2.970943 1.34928 1.638356 0.7635325 -1.987688 1.793608 0.6190093 0.3317129 1.236875 -0.6532025 -0.345228 -1.373486 -1.015086 1.198931 -2.259414 -0.4452945 -3.701388 -1.323772 -3.589671 -1.059775 -4.494362 -1.174354 -5.051198 -1.464551 -4.371159 -1.12359 6.261781 1 584
-0.7293379 2.568341 1.395121 2.515225 2.230008 -1.772524 2.442355 0.4622989 -0.3215134 0.1067977 1.468896 2.20149 1.448558 -0.3456568 1.836537 2.777141 1.430603 1.604334 0.2849261 -1.063356 1.898209 0.5749096 0.5388874 1.155783 -0.8341272 -1.124242 -1.39175 -0.7789605 1.07166 -2.408274 -0.8034231 -4.109969 -1.390918 -3.491903 -1.110591 -4.784911 -1.236191 -5.063616 -1.493914 -4.349617 -1.352936 9.945576 1 588
-0.932067 2.344708 1.133049 2.300658 2.069233 -2.054558 2.410727 0.2564078 -0.3490204 0.2017143 1.3478 1.512297 1.313229 -0.41544 1.742137 2.645638 1.527412 1.64792 -0.2430972 -0.1797772 1.975169 0.5984989 0.675 1.160693 -1.001513 -1.50357 -1.367608 -0.5725095 1.002325 -2.441834 -0.9246101 -4.372732 -1.299976 -3.457421 -1.029683 -4.930935 -1.172749 -5.096606 -1.454863 -4.384176 -1.21058 12.53065 1 592
-1.325777 2.166199 1.05505 2.12143 2.008128 -2.307667 2.381465 0.2577166 -0.3492531 0.4874641 1.102716 1.198225 1.091062 -0.3344416 1.825968 2.546474 1.803707 1.752112 -0.262347 0.01487192 2.078965 0.7295609 0.8319902 1.144279 -0.8928809 -1.553844 -1.270993 -0.4113648 0.9800896 -2.342968 -0.8670821 -4.305908 -1.120745 -3.46709 -0.8711822 -4.857747 -1.038214 -5.145583 -1.330842 -4.390286 -1.086817 11.95554 1 596
-1.605865 2.072556 1.108074 2.027667 1.937684 -2.378138 2.273333 0.4780409 -0.3484306 1.233312 0.8937798 1.200354 0.932656 -0.1134777 2.140473 2.437117 2.283434 1.854616 0.190509 -0.4098544 2.205465 0.9078172 1.046536 1.02838 -0.4783499 -1.527322 -1.184945 -0.2907431 0.9644682 -2.182339 -0.7929676 -4.04309 -1.013967 -3.529655 -0.7944475 -4.681936 -0.976449 -5.263852 -1.246383 -4.363562 -1.067134 9.076578 1 600
-1.073308 2.132607 1.195707 2.087191 1.809891 -2.118955 2.190418 0.7791348 -0.3185861 2.140507 0.8825657 1.103847 0.9487924 0.05248624 2.490068 2.315574 2.71356 1.868088 0.521178 -0.8338694 2.234543 0.9896358 1.205962 0.8752642 -0.154429 -1.551815 -1.290232 -0.274936 0.8750996 -2.145001 -0.8139622 -3.940485 -1.113189 -3.715127 -0.8970202 -4.615294 -1.099193 -5.498848 -1.34906 -4.419377 -1.185071 6.995557 1 604
0.2472701 2.289677 1.278431 2.236988 1.627504 -1.535244 2.167274 1.002083 -0.2150785 2.564383 1.050543 0.9306486 1.100312 -0.008418214 2.552339 2.17726 2.809544 1.72263 0.3588216 -1.420054 2.076909 0.8807285 1.192731 0.6707172 -0.2691176 -1.521761 -1.558045 -0.4240957 0.6948154 -2.269346 -0.8666052 -4.124741 -1.261057 -4.00321 -1.04256 -4.686056 -1.254296 -5.736395 -1.509207 -4.569677 -1.399614 8.042942 1 608
1.248052 2.423242 1.366297 2.344076 1.36283 -1.019997 2.148809 1.109862 0.05271667 2.181444 1.292154 0.963142 1.307169 -0.2276664 2.265605 2.047683 2.58287 1.513649 -0.08467709 -2.466207 1.830126 0.6622732 1.031656 0.3898565 -0.6462046 -1.304306 -1.749165 -0.689558 0.4875003 -2.377847 -0.8390638 -4.403061 -1.291101 -4.276881 -1.100972 -4.755079 -1.294781 -5.858193 -1.556037 -4.741507 -1.497801 11.56914 1 612
1.26403 2.607516 1.492263 2.480744 1.093163 -0.9361876 2.18371 1.308199 0.4616895 1.288464 1.601952 1.252246 1.6119 -0.447652 1.881225 1.957169 2.261699 1.417305 -0.4429257 -3.173611 1.607947 0.4632727 0.7961426 0.200098 -0.9951665 -0.9047594 -1.813503 -0.9864472 0.2914367 -2.453593 -0.7502632 -4.648166 -1.273132 -4.505573 -1.090503 -4.854211 -1.289641 -5.97085 -1.529446 -4.918003 -1.492373 14.95388 1 616
0.8354356 2.929962 1.504724 2.77276 0.9705334 -1.043403 2.33855 1.676859 0.7938895 0.6166821 1.889052 1.74394 1.943938 -0.6208419 1.672742 1.870215 2.046856 1.421947 -0.5165882 -2.936603 1.39027 0.2827553 0.5604017 0.1698953 -1.217466 -0.5378187 -1.957812 -1.263095 0.06077282 -2.574082 -0.7235484 -4.861513 -1.297568 -4.715671 -1.073436 -5.063913 -1.321139 -6.186022 -1.541916 -5.08292 -1.626365 16.66951 1 620
0.5191562 3.268615 1.260728 3.130798 0.9484043 -0.8619345 2.572482 2.024505 0.9019994 0.5622165 1.995741 2.345994 2.088011 -0.770667 1.652735 1.773375 1.992767 1.401397 -0.3103248 -2.352831 1.180845 0.1070587 0.3961327 0.2137369 -1.337162 -0.3181109 -2.236449 -1.460093 -0.1860941 -2.681813 -0.7131048 -4.93593 -1.29973 -4.85781 -1.044415 -5.219285 -1.311725 -6.353891 -1.550798 -5.136034 -1.946079 16.54764 1 624
0.2212478 3.411722 1.029956 3.309193 0.8685759 -0.3324036 2.751667 2.16878 0.9330155 0.8399351 1.969614 2.870761 2.048424 -0.8918032 1.652042 1.676298 2.027572 1.346265 -0.02505771 -2.087197 1.034089 -0.02728856 0.2858202 0.3447701 -1.542724 -0.05654363 -2.479028 -1.548182 -0.3024065 -2.767251 -0.4870942 -4.786486 -1.127648 -4.887848 -0.9004532 -5.178647 -1.129393 -6.306533 -1.392689 -5.017334 -2.154711 14.63897 1 628
-0.1550207 3.268202 1.088338 3.175667 0.720148 0.04440216 2.774628 2.150528 1.0788 1.191129 1.998793 3.239826 2.061234 -0.9542536 1.627025 1.581741 2.129338 1.350873 0.2665884 -2.023619 0.9418671 -0.1283243 0.2335292 0.5774183 -1.82292 0.3127419 -2.62997 -1.600513 -0.261485 -2.856166 -0.02066248 -4.480766 -0.7799028 -4.859073 -0.625678 -5.014663 -0.8011441 -6.1196 -1.06232 -4.835255 -2.042661 11.26113 1 632
-0.6335945 2.975082 1.140288 2.890029 0.5137294 -0.2750737 2.657939 2.080224 1.316549 1.563149 2.17571 3.416821 2.245069 -0.9566994 1.597636 1.490269 2.329682 1.43747 0.6977395 -1.718948 0.8620037 -0.2175202 0.3234257 0.8397203 -1.756496 0.7140467 -2.759797 -1.672193 -0.1979204 -2.814501 0.5050005 -4.037131 -0.4004349 -4.806978 -0.3213095 -4.754723 -0.4457713 -5.891499 -0.6958643 -4.695438 -1.71525 6.995479 1 636
-0.914584 2.772353 0.9216801 2.714501 0.2973458 -1.101431 2.502836 1.965756 1.553528 1.806138 2.449103 3.330068 2.513149 -0.9460526 1.547921 1.395891 2.536536 1.485922 1.132958 -1.139034 0.7679588 -0.327289 0.516377 1.007256 -1.269961 1.081692 -2.950463 -1.74376 -0.2383673 -2.605203 0.8711691 -3.59831 -0.176178 -4.752358 -0.1295246 -4.467461 -0.2345818 -5.687087 -0.4760243 -4.636912 -1.392788 3.617283 1 640
-0.3591175 2.804629 0.7648666 2.76047 0.2589611 -1.63021 2.421721 1.900844 1.729035 1.776609 2.704911 3.002254 2.735187 -0.9772993 1.518209 1.339303 2.587245 1.397612 1.118854 -0.5949556 0.6245493 -0.5118765 0.6269911 0.9646286 -0.9745638 1.254382 -3.265849 -1.847073 -0.4329525 -2.502048 0.8976091 -3.542042 -0.2787853 -4.805846 -0.2035341 -4.396927 -0.3376296 -5.649079 -0.5579187 -4.696123 -1.295476 3.670362 1 644
0.5417327 2.990509 0.8455316 2.927122 0.4013258 -1.645692 2.439694 1.853832 1.914441 1.364056 2.840043 2.381619 2.842554 -1.059346 1.497505 1.344161 2.399737 1.22704 0.4429307 -0.2194652 0.3975126 -0.7354032 0.538148 0.8074507 -1.213254 1.342733 -3.61826 -2.023185 -0.6864476 -2.61339 0.7189695 -3.890779 -0.5732262 -5.01643 -0.4602489 -4.525379 -0.6214271 -5.74358 -0.8143412 -4.796301 -1.221314 7.418819 1 648
0.3804761 3.059537 0.9310329 2.967413 0.5458605 -1.646532 2.493862 1.562288 2.24447 0.762167 2.818656 1.502342 2.840868 -1.144393 1.430092 1.36023 2.08169 1.076064 -0.4887604 0.007226424 0.161645 -0.889881 0.3469681 0.7458457 -1.541578 1.58489 -3.827201 -2.202093 -0.8503695 -2.670611 0.5675878 -4.200261 -0.7466542 -5.235469 -0.6459827 -4.514175 -0.792622 -5.754499 -0.9939719 -4.807979 -0.7317789 12.21355 1 652
-0.9795595 2.945768 1.085622 2.827725 0.7450988 -1.697135 2.582159 1.191328 2.529354 0.6067719 2.785017 0.7918189 2.853307 -1.151182 1.4317 1.399041 1.908641 1.036025 -0.9527281 0.07990386 0.06901327 -0.9324251 0.2351494 0.7999785 -1.478167 1.735842 -3.837195 -2.29446 -0.8939461 -2.553181 0.3631046 -4.153245 -0.8165774 -5.282791 -0.7483937 -4.246952 -0.8583235 -5.598741 -1.100277 -4.707277 -0.1493683 14.42951 1 656
-2.155299 2.878978 1.512729 2.73294 1.144297 -1.506787 2.791163 1.119317 2.527508 1.006325 2.94064 0.5389135 3.031322 -1.04295 1.646091 1.562755 1.958794 1.185962 -0.8666593 0.04142557 0.09612775 -0.904134 0.1544959 0.8840843 -1.262744 1.507647 -3.771298 -2.343393 -0.8924776 -2.52578 -0.01271967 -3.946485 -1.019389 -5.187727 -0.9447084 -4.005198 -1.042977 -5.397585 -1.296629 -4.581373 -0.01410688 13.45887 1 660
-2.146049 2.975848 1.945941 2.819207 1.652865 -1.1484 3.147798 1.260676 2.365001 1.309392 3.155994 0.5981525 3.240966 -0.8609177 1.983699 1.888113 2.013052 1.461373 -0.8351043 -0.07510634 0.07448454 -0.8532711 -0.05957166 0.9531631 -1.43893 1.113194 -3.780385 -2.428125 -0.9328656 -2.804706 -0.4492298 -3.98652 -1.390542 -5.129917 -1.284714 -4.043835 -1.387218 -5.297313 -1.596732 -4.531097 -0.1345221 12.63609 1 664
0.01635213 -0.6789178 1.73332 -0.7818188 3.006663 2.279773 -0.03508633 0.2009545 -0.6475595 0.2061638 -0.649524 0.09149387 -0.7034109 -3.068214 1.079604 -0.008395195 -0.6851531 -0.9184254 0.2607424 -0.8430565 -2.599566 -1.268917 0.03131615 -1.783234 0.1445583 -1.867552 -0.2810643 -1.311317 0.635097 0.1369994 0.6073484 0.0301906 2.41201 0.06494288 2.6896 0.06333172 3.790397 0.07084658 3.765648 1.174054 -4.620815 -1.73994 2 -168
0.1864183 -0.676149 1.620943 -0.5505511 2.620979 2.042183 0.1086847 0.3648644 -0.6015444 -0.1781856 -0.572628 -0.24724 -0.6418262 -3.619115 0.4102284 -0.3549473 -1.239303 -0.648815 -0.1175619 -0.8038525 -2.698041 -1.075871 0.2263537 -1.217675 0.3331486 -1.297152 0.02428345 -1.206669 1.361244 0.3099342 0.9878088 0.2305388 2.616656 0.2826081 3.139745 0.2752903 3.94278 0.2328421 3.956134 1.412827 -5.607796 -3.331027 2 -164
0.4382606 -0.7057066 1.634268 -0.1833165 2.222606 1.680494 0.3013393 0.3936757 -0.2884285 -0.399882 -0.2628716 -0.4342851 -0.3256423 -4.271281 -0.3133654 -0.656328 -1.99474 -0.5097632 -0.3767896 -0.4982997 -2.904856 -1.065009 0.334372 -0.8225611 0.4337651 -0.8675169 0.1774762 -1.176252 1.875263 0.4032819 1.383949 0.3405907 2.91724 0.3941638 3.609324 0.4039884 4.189262 0.3594984 4.234326 1.68839 -6.457048 -4.901606 2 -160
0.6573601 -0.8704152 1.585453 -0.02659711 1.755148 1.219446 0.1543499 0.4523458 0.09933615 -0.2515861 0.108089 -0.2923009 0.06777126 -5.000041 -1.152837 -1.031647 -2.814742 -0.546838 -0.2733512 -0.1056718 -3.149142 -1.137494 0.4751413 -0.570744 0.5792035 -0.5980328 0.3001753 -1.179176 2.251495 0.5372762 1.717012 0.4979558 3.137264 0.5383816 4.036428 0.5935135 4.295282 0.5618244 4.356924 1.995358 -7.043941 -5.927618 2 -156
0.7244905 -1.129254 1.365749 -0.115628 1.294721 0.779751 -0.3591054 0.5874233 0.2867751 0.1147997 0.3024942 0.04207765 0.2770386 -5.594798 -1.912142 -1.421947 -3.42104 -0.7083256 0.08482799 0.1201502 -3.304584 -1.194908 0.6856183 -0.3809649 0.8051363 -0.4267238 0.4798586 -1.130373 2.567837 0.7515374 1.905155 0.7424294 3.217142 0.7614512 4.36744 0.8643156 4.260548 0.8173035 4.327591 2.257097 -7.309451 -6.381364 2 -152
0.5724186 -1.355126 0.9402485 -0.4706666 0.8809778 0.2514197 -0.954118 0.5375383 0.3498383 0.3563519 0.3996898 0.2643704 0.3510576 -5.935518 -2.433641 -1.703308 -3.68494 -0.8722258 0.3277784 0.2229058 -3.358018 -1.174423 0.8165581 -0.07581553 0.9395524 -0.1650605 0.6845164 -1.006255 2.891672 0.9052268 2.011035 0.8817282 3.346107 0.9328851 4.742929 1.030606 4.402979 0.9574734 4.472519 2.485497 -7.269341 -6.496687 2 -148
0.2661525 -1.549631 0.4293119 -1.064419 0.5347586 -0.3557938 -1.535586 0.3843486 0.3398535 0.3778003 0.4117666 0.2882518 0.3445936 -6.007854 -2.712363 -1.864086 -3.615818 -0.9488997 0.3464411 0.2307099 -3.31617 -0.9797678 0.7804198 0.3838651 0.9013748 0.2456881 0.9457968 -0.8401142 3.258916 0.9132363 2.11799 0.8270795 3.548474 0.9614744 5.257806 0.9996501 4.75574 0.946354 4.837401 2.704382 -7.147779 -6.400895 2 -144
0.05643572 -1.71184 -0.01692733 -1.61256 0.2543521 -0.8104085 -2.172117 0.5424336 0.1468133 0.3132112 0.2127865 0.2240317 0.1887791 -5.825922 -2.814109 -2.010276 -3.349407 -1.028727 0.292292 0.09497333 -3.130302 -0.640698 0.689211 0.7268634 0.8142692 0.5642514 1.363169 -0.6573417 3.570043 0.8549643 2.118861 0.7085577 3.603017 0.9239185 5.756691 0.8996744 5.004774 0.9079907 5.084449 2.892687 -7.010098 -6.019059 2 -140
0.02058588 -1.786506 -0.3638762 -2.024536 -0.03571757 -1.162656 -2.762102 0.8104265 -0.1527251 0.1668571 -0.1213783 0.08451366 -0.07394116 -5.520094 -2.840606 -2.181477 -3.108646 -1.218441 0.1867565 -0.1116277 -2.824683 -0.3042252 0.7031577 0.8085619 0.8129292 0.6719756 1.903402 -0.4927354 3.77405 0.8339157 2.045519 0.6707712 3.539635 0.951634 6.163135 0.8988367 5.133852 0.9581283 5.168306 3.097527 -6.663997 -5.654091 2 -136
-0.08653367 -1.838455 -0.6003819 -2.401181 -0.33244 -1.54783 -3.050296 0.7139701 -0.2464586 -0.08596718 -0.2905846 -0.1481412 -0.1847006 -5.251168 -2.820096 -2.25531 -2.981432 -1.423452 -0.03054816 -0.1707654 -2.526193 -0.04544705 0.691106 0.8502974 0.7633963 0.7791878 2.383469 -0.453831 3.979343 0.7334379 2.179193 0.6063625 3.616032 0.9340281 6.536819 0.8553739 5.399147 0.9438822 5.389203 3.276407 -6.23166 -5.627458 2 -132
-0.4244685 -1.86189 -0.7742211 -2.714372 -0.5102879 -1.731587 -2.930201 0.2940108 0.010996 -0.3971078 -0.1128972 -0.4577281 0.039412 -5.013569 -2.687483 -2.153997 -2.828955 -1.483838 -0.3829232 0.06711075 -2.303856 0.140577 0.3805202 1.094917 0.4312626 1.100385 2.639617 -0.6196024 4.24683 0.3544954 2.625883 0.3042746 3.845055 0.6173388 6.852829 0.4916072 5.805576 0.5937124 5.782838 3.23294 -5.892328 -5.670871 2 -128
-0.8442736 -1.692969 -0.9416683 -2.864921 -0.508787 -1.46933 -2.525507 -0.1848751 0.3645144 -0.788934 0.2093016 -0.8476652 0.382302 -4.732904 -2.413305 -1.977783 -2.520242 -1.400195 -0.8556877 0.4102116 -2.131164 0.2795178 -0.1494675 1.483092 -0.1036272 1.549691 2.693744 -0.9071141 4.502123 -0.1989519 3.227205 -0.1694027 4.047711 0.04362232 7.099649 -0.09863332 6.157892 -0.0002538291 6.110247 2.972395 -5.521332 -5.684454 2 -124
-1.128306 -1.374189 -1.065414 -2.764929 -0.4202804 -0.9632017 -2.046752 -0.5419599 0.5207506 -1.145166 0.4017288 -1.169248 0.5280429 -4.459791 -2.091134 -1.889377 -2.130383 -1.308631 -1.234857 0.5673854 -1.995207 0.3599011 -0.5816547 1.796583 -0.5617046 1.857554 2.716979 -1.122121 4.631966 -0.6327482 3.724904 -0.5830017 4.13293 -0.474347 7.280475 -0.5943775 6.315079 -0.4918948 6.193721 2.781989 -5.298246 -5.740562 2 -120
-1.310169 -1.179608 -1.154187 -2.577629 -0.4085838 -0.6168969 -1.742248 -0.7373585 0.413043 -1.221374 0.3629049 -1.209964 0.4048823 -4.250462 -1.839824 -1.971857 -1.77601 -1.34383 -1.268169 0.4486859 -1.881955 0.3299245 -0.7746395 1.998253 -0.7985764 1.985961 2.815302 -1.138576 4.615812 -0.8111956 3.991869 -0.8210611 4.151063 -0.731072 7.333859 -0.8518459 6.324376 -0.7387903 6.099965 2.731676 -5.416121 -5.435519 2 -116
-1.412594 -1.173513 -1.180984 -2.471316 -0.4917221 -0.470149 -1.734569 -0.8176919 0.1433784 -1.025085 0.107187 -0.9968545 0.1351706 -4.00633 -1.645758 -2.125242 -1.43588 -1.536703 -1.023054 0.1324682 -1.736774 0.2335944 -0.8843197 2.146252 -0.9265282 2.071506 2.911607 -1.045678 4.528702 -0.8850647 4.119126 -0.9917126 4.145315 -0.8439898 7.236197 -0.9961164 6.304106 -0.8977897 6.016955 2.547426 -5.460287 -4.563271 2 -112
-1.355912 -1.204037 -1.012133 -2.283123 -0.4995236 -0.2777857 -1.805014 -0.897057 -0.08629127 -0.8130568 -0.1634845 -0.7719788 -0.08104087 -3.648697 -1.427474 -2.180501 -1.069758 -1.754816 -0.7844294 -0.1633525 -1.537669 0.2269582 -1.087281 2.212085 -1.107511 2.11746 2.900231 -0.9720363 4.468141 -1.061204 4.163069 -1.244348 4.038045 -1.017249 7.035172 -1.204554 6.185998 -1.133299 5.922101 2.152415 -5.064446 -3.712951 2 -108
-1.211503 -1.19186 -0.6877063 -1.905593 -0.3606576 0.08289883 -1.722198 -1.043861 -0.1552749 -0.775054 -0.2489392 -0.7322173 -0.1350734 -3.254375 -1.159202 -2.149436 -0.7292067 -1.867047 -0.7297668 -0.2532711 -1.349329 0.3382753 -1.3313 2.132686 -1.325291 2.038882 2.796489 -0.922986 4.485094 -1.327234 4.068966 -1.520047 3.770024 -1.241165 6.772526 -1.456727 5.869867 -1.412588 5.676695 1.733392 -4.300736 -3.265686 2 -104
-1.07408 -1.126316 -0.4727265 -1.491527 -0.2142287 0.4937959 -1.597559 -1.043183 -0.1042466 -0.8350629 -0.1927674 -0.8038641 -0.06910284 -2.895774 -0.8875565 -2.166976 -0.4341516 -1.877926 -0.782135 -0.1601122 -1.242635 0.4334983 -1.542659 1.927691 -1.53766 1.840182 2.642552 -0.8839208 4.505745 -1.58685 3.853663 -1.72586 3.405905 -1.448074 6.453163 -1.663522 5.427016 -1.651454 5.298999 1.364243 -3.366895 -2.767728 2 -100
-1.026228 -1.055763 -0.4747519 -1.231287 -0.19298 0.714768 -1.536459 -0.8053613 -0.01158138 -0.8093503 -0.1006597 -0.7892711 0.05056202 -2.584189 -0.6932123 -2.241874 -0.1767555 -1.88241 -0.7619656 0.0008792823 -1.208351 0.3982867 -1.67387 1.717805 -1.686327 1.632781 2.417635 -0.8195371 4.404026 -1.721496 3.613271 -1.801166 3.071903 -1.582438 6.084951 -1.752553 4.971938 -1.766048 4.898774 1.042822 -2.535899 -2.098694 2 -96
-1.026236 -1.078202 -0.4796292 -1.193917 -0.3139822 0.686642 -1.511741 -0.5221817 -0.001715877 -0.6421611 -0.07102717 -0.6547637 0.1064869 -2.35634 -0.632163 -2.310014 -0.02936094 -2.032245 -0.6055159 0.08473048 -1.217931 0.1783577 -1.535162 1.483081 -1.558589 1.400837 2.092022 -0.6945037 4.084892 -1.53302 3.321976 -1.582771 2.853655 -1.461876 5.674754 -1.540361 4.579307 -1.577158 4.556181 0.8721802 -2.038866 -1.773853 2 -92
-0.87384 -1.090916 -0.3595037 -1.201835 -0.458394 0.5262221 -1.523371 -0.3139368 -0.1213559 -0.421863 -0.1395864 -0.4762939 0.02768775 -2.187369 -0.6260874 -2.275047 -0.02117955 -2.263223 -0.3915876 0.04658903 -1.237766 -0.1512128 -1.157391 1.159826 -1.159336 1.094902 1.721238 -0.5600378 3.546486 -1.097029 2.903537 -1.147674 2.688066 -1.09197 5.146888 -1.066612 4.243557 -1.140768 4.216675 0.8543815 -1.844324 -1.77696 2 -88
-0.6483455 -0.909714 -0.2458423 -1.044126 -0.4355614 0.3383863 -1.464452 -0.2329738 -0.2283144 -0.2551039 -0.1941601 -0.2880199 -0.0728594 -1.939172 -0.4980634 -1.994446 -0.0909483 -2.280061 -0.2058242 0.0007655404 -1.222654 -0.4010049 -0.8499153 0.8801851 -0.7856619 0.8434374 1.372491 -0.4885989 2.940823 -0.7350402 2.398201 -0.8032998 2.393671 -0.7615395 4.427369 -0.6769774 3.783505 -0.7913752 3.690025 0.7917984 -1.723888 -1.592479 2 -84
-0.5406296 -0.6099842 -0.213194 -0.8273537 -0.2126973 0.2329149 -1.204953 -0.1704516 -0.2988101 -0.08231333 -0.2557279 -0.05373929 -0.1705017 -1.517561 -0.2229085 -1.518641 -0.2058719 -2.031686 0.008306409 -0.08697809 -1.179161 -0.4961641 -0.6299778 0.6578837 -0.4992183 0.6423542 1.00818 -0.4855472 2.42172 -0.4866772 1.7771 -0.55224 1.858682 -0.5576434 3.626426 -0.444625 3.034381 -0.5713795 2.915348 0.5850765 -1.453558 -1.188182 2 -80
-0.401145 -0.3348515 -0.1806623 -0.6308151 0.06581996 0.2432049 -0.8069842 0.08946954 -0.4421955 0.1846545 -0.431745 0.2413491 -0.3476313 -1.021707 0.06173173 -1.029902 -0.3218941 -1.740541 0.2972552 -0.3278755 -1.11516 -0.5371436 -0.3763213 0.3472593 -0.2310687 0.3365251 0.6128967 -0.4966304 1.979554 -0.2444815 1.044068 -0.3014632 1.233601 -0.3882264 2.916399 -0.2356932 2.181989 -0.340367 2.109551 0.3415614 -1.114256 -0.8882881 2 -76
0.008198461 -0.04277889 -0.04209881 -0.2836831 0.2627112 0.2945327 -0.4672209 0.4554085 -0.5627122 0.4201004 -0.5710354 0.4870352 -0.4994507 -0.7089461 0.2298282 -0.6423314 -0.3696043 -1.608714 0.5270553 -0.5682569 -1.05543 -0.6738012 -0.08929513 -0.06266382 0.007686853 -0.06918807 0.2459202 -0.4604562 1.451535 0.009804791 0.3142451 -0.06774009 0.7450623 -0.1749085 2.234867 0.01112735 1.456833 -0.05310204 1.433304 0.2431769 -0.967561 -0.7967578 2 -72
0.6018541 0.2966626 0.2465948 0.1777011 0.3859745 0.3639795 -0.263333 0.6694435 -0.4967304 0.5245093 -0.4951909 0.5992399 -0.4765043 -0.6477931 0.2915846 -0.4031956 -0.3452623 -1.647865 0.6150541 -0.5968075 -1.046909 -0.9593709 0.2774346 -0.4997032 0.3062681 -0.4743216 -0.06668253 -0.3433741 0.6924351 0.3201131 -0.4901471 0.2400406 0.3319319 0.1720514 1.370326 0.3613249 0.7355032 0.3467726 0.7405849 0.3190769 -0.9893244 -0.7441122 2 -68
1.050942 0.5048868 0.6444718 0.5305231 0.5338989 0.4623098 -0.04979857 0.7982416 -0.3464203 0.6180096 -0.3331648 0.667785 -0.3537182 -0.5860268 0.3822579 -0.217843 -0.2819494 -1.626186 0.6864542 -0.4832182 -1.039775 -1.27204 0.6512638 -0.9358715 0.6498461 -0.8724773 -0.3022643 -0.1538377 -0.2401306 0.6454111 -1.36691 0.5881963 -0.1228467 0.5625905 0.3550259 0.7166188 -0.06017039 0.750756 -0.0280363 0.3870909 -1.008127 -0.5057422 2 -64
1.242762 0.5111734 1.024621 0.8524947 0.7297329 0.5638196 0.33214 1.020573 -0.2444555 0.8268217 -0.2432073 0.8203897 -0.2467513 -0.3915621 0.5221589 0.03492572 -0.2216939 -1.34367 0.8730248 -0.360521 -1.003766 -1.447971 0.906252 -1.410202 0.8857912 -1.3465 -0.4138047 0.08238498 -1.149224 0.9035953 -2.070461 0.82099 -0.5485863 0.83701 -0.601293 0.9238191 -0.8099738 0.9934095 -0.7352285 0.3480367 -0.9889858 -0.4777767 2 -60
1.328264 0.5088928 1.260259 1.336667 0.9146473 0.6134523 0.8936884 1.197485 -0.07493865 1.101033 -0.1310775 1.053322 -0.1019537 -0.2175909 0.6093365 0.3173187 -0.1802094 -0.8490061 1.128365 -0.1615548 -0.9590725 -1.437165 1.063393 -1.864582 1.005326 -1.82585 -0.4347896 0.3431549 -1.84399 1.070405 -2.573346 0.9482425 -0.9668242 0.9969665 -1.435829 1.020843 -1.556001 1.100382 -1.421694 0.2092067 -1.025213 -0.9592223 2 -56
1.313488 0.5530323 1.329586 1.76815 0.991654 0.4562759 1.54533 1.128124 0.224339 1.28663 0.1033641 1.242314 0.1203197 -0.1512471 0.6249143 0.586839 -0.09131444 -0.2418311 1.312694 0.1459154 -0.8367442 -1.278369 1.141709 -2.044294 1.078052 -2.020554 -0.4728977 0.597505 -2.220736 1.113828 -2.978929 1.031805 -1.421697 1.07788 -2.134617 1.067646 -2.308789 1.130944 -2.130509 -0.0265582 -1.181893 -1.430369 2 -52
1.108241 0.5759567 1.2422 1.803206 0.905489 0.07564952 2.094089 0.8958384 0.3760196 1.274512 0.2439947 1.26161 0.2078912 -0.09571755 0.5812714 0.877469 0.06394784 0.4132065 1.332162 0.2843321 -0.6154614 -1.055951 1.188992 -1.911684 1.161965 -1.887342 -0.5484356 0.8151869 -2.329305 1.128036 -3.19496 1.121144 -1.731207 1.13737 -2.650417 1.115081 -2.790862 1.17078 -2.630165 -0.2252943 -1.321329 -1.467656 2 -48
0.7785232 0.6351608 0.9501608 1.452659 0.7065477 -0.1834891 2.237666 0.6821612 0.1542263 1.045508 0.06540027 1.064125 -0.01696785 0.022305 0.4627327 1.127561 0.2253831 1.030603 1.134377 0.04626715 -0.3591469 -0.8046884 1.311137 -1.741534 1.311065 -1.720806 -0.595298 0.9866571 -2.266572 1.276606 -3.14275 1.288064 -1.808507 1.266365 -3.003569 1.24879 -2.910396 1.323926 -2.81306 -0.2370852 -1.235696 -0.9942009 2 -44
0.4242086 0.7212647 0.3881519 0.8840111 0.4257165 -0.1910021 1.830451 0.5158694 -0.1961876 0.7297289 -0.2195313 0.7559949 -0.3249456 0.207197 0.2826347 1.209359 0.3377738 1.59265 0.7954435 -0.2850427 -0.08629623 -0.4317108 1.416051 -1.535291 1.398889 -1.534749 -0.5865713 1.085584 -2.049175 1.425576 -2.831213 1.414784 -1.774228 1.348521 -3.198876 1.349578 -2.862156 1.439471 -2.816089 -0.1754493 -0.7759232 -0.1051741 2 -40
0.1387249 0.6971695 -0.2963352 0.2988587 0.06759839 -0.2902867 1.148327 0.3766884 -0.3968768 0.4872499 -0.3764277 0.4861252 -0.4896156 0.4979866 0.07859416 1.134913 0.3270925 2.051845 0.4904924 -0.4456652 0.2218452 0.05468103 1.286806 -1.108901 1.21906 -1.129714 -0.5482205 1.064327 -1.725722 1.285931 -2.222369 1.265753 -1.628112 1.192751 -3.204037 1.197168 -2.626038 1.270196 -2.624977 -0.2345855 0.03984213 0.9678019 2 -36
-0.06102097 0.513279 -0.7591232 -0.01616038 -0.2920124 -0.615274 0.6046789 0.214443 -0.4425172 0.244652 -0.4138171 0.2168822 -0.5194951 0.8829618 -0.1090834 1.027937 0.2120191 2.282294 0.1966721 -0.4743211 0.5872279 0.4831199 0.9707276 -0.6038516 0.8644457 -0.6367748 -0.5276781 0.9402535 -1.439136 0.9366708 -1.441176 0.9270718 -1.352869 0.9187777 -3.053852 0.8754767 -2.206236 0.9306265 -2.241596 -0.3029449 0.947744 1.73032 2 -32
-0.2826451 0.2394282 -0.93122 -0.07943999 -0.5961977 -0.9739666 0.2215444 -0.1089906 -0.3121267 -0.1525398 -0.27183 -0.1786145 -0.3648015 1.235083 -0.2787446 0.9470159 0.1161218 2.290283 -0.24813 -0.3490242 0.9825584 0.8129097 0.7022143 -0.1781217 0.5937992 -0.2014555 -0.5570416 0.7773201 -1.284885 0.6773908 -0.7718084 0.6964422 -1.096804 0.7408243 -2.835346 0.6221586 -1.890823 0.706963 -1.906757 -0.2070531 1.684119 2.01228 2 -28
-0.5014617 -0.01294657 -0.9933289 -0.153986 -0.8471603 -1.259886 -0.2100715 -0.5992178 -0.003619059 -0.6924706 0.06015684 -0.7073899 -0.02404239 1.483793 -0.4555745 0.8757461 0.0434844 2.199082 -0.8432283 -0.03679331 1.343669 1.108131 0.5539294 0.2609445 0.462532 0.2938171 -0.6437446 0.5979906 -1.252926 0.544126 -0.3057651 0.6289288 -0.9402016 0.658091 -2.60948 0.4830318 -1.74418 0.6113209 -1.716921 -0.06285899 2.164938 2.243725 2 -24
-0.578158 -0.1316128 -0.9332369 -0.232627 -0.9909536 -1.3715 -0.5841421 -1.031173 0.3700188 -1.21924 0.4388717 -1.220385 0.3737487 1.715247 -0.5788546 0.8337817 -0.05283192 2.075633 -1.39224 0.3768585 1.686073 1.34267 0.3367607 0.7485073 0.2783638 0.8639671 -0.7804264 0.3759225 -1.284115 0.2993723 0.1020873 0.481518 -0.8244402 0.4797741 -2.421974 0.281319 -1.558858 0.3933339 -1.547829 -0.1153172 2.539999 2.455462 2 -20
-0.4884363 -0.09067205 -0.6892851 -0.2678694 -0.9262009 -1.141411 -0.6214375 -1.149464 0.6756968 -1.454794 0.7440919 -1.443215 0.6926603 2.077956 -0.4851044 0.9217111 -0.06061113 1.952845 -1.60313 0.7288287 2.097096 1.492028 -0.1499974 1.142173 -0.1508102 1.285313 -0.9474726 0.07331018 -1.354212 -0.2187802 0.590414 0.02607899 -0.7742971 -0.005660805 -2.363878 -0.1621932 -1.37494 -0.1397025 -1.44244 -0.5261227 3.063061 2.468689 2 -16
-0.3090012 0.02802476 -0.3566323 -0.3207147 -0.6400042 -0.5890596 -0.3108239 -0.9193987 0.8016679 -1.204273 0.8923101 -1.207567 0.8166115 2.594045 -0.1078851 1.210971 0.1417816 1.882299 -1.322618 0.8594967 2.557885 1.56944 -0.7672098 1.283339 -0.7166007 1.343774 -1.190624 -0.3189712 -1.54398 -0.8336872 1.047214 -0.6150593 -0.9013777 -0.6948698 -2.536688 -0.7331437 -1.478106 -0.8279101 -1.580399 -1.178082 3.736171 2.439393 2 -12
-0.141604 0.1959769 -0.01241066 -0.2534623 -0.212381 0.01944453 0.2321976 -0.6148649 0.8036875 -0.6784577 0.9119329 -0.7212975 0.8055502 3.104676 0.4330835 1.626403 0.5116878 1.850092 -0.7989777 0.8458275 2.908535 1.564968 -1.279578 1.208141 -1.212886 1.151808 -1.559472 -0.7734136 -1.870357 -1.345004 1.251218 -1.187272 -1.184944 -1.324056 -2.913971 -1.244066 -1.887921 -1.406693 -1.92312 -1.786948 4.384782 2.523643 2 -8
-0.04237475 0.5028477 0.3539362 0.124534 0.3429668 0.5304753 1.012235 -0.5325481 0.8791492 -0.295781 0.9808333 -0.3517517 0.8768227 3.479743 1.015106 2.06832 0.9043464 1.804529 -0.4420054 0.9156794 3.04137 1.508502 -1.755294 1.079866 -1.684934 0.9900341 -1.937507 -1.260766 -2.172748 -1.834802 1.172839 -1.694513 -1.505537 -1.897706 -3.326348 -1.754234 -2.348578 -1.902925 -2.300625 -2.28035 5.011084 2.725881 2 -4
0.1888569 0.9579924 0.8338336 0.9240835 1.027157 1.041079 1.874784 -0.6051007 1.08079 -0.1559162 1.161128 -0.1843934 1.072024 3.712692 1.593104 2.545962 1.164059 1.710636 -0.3165865 1.113966 2.977577 1.411898 -2.280724 0.9618315 -2.188827 0.9241978 -2.239887 -1.762636 -2.410739 -2.351635 0.8251733 -2.202409 -1.862005 -2.465746 -3.705246 -2.291305 -2.779905 -2.397018 -2.693062 -2.74884 5.553892 2.984492 2 0
0.6824373 1.427214 1.357449 1.910442 1.651064 1.564661 2.390345 -0.5547717 1.264805 0.01076258 1.31383 0.008574892 1.224232 3.817933 2.158528 3.033655 1.292311 1.490852 -0.1514086 1.286005 2.756724 1.168731 -2.647975 0.837298 -2.523288 0.8717282 -2.620356 -2.229349 -2.743318 -2.697296 0.2067178 -2.560571 -2.250022 -2.840466 -4.103553 -2.660831 -3.20787 -2.737958 -3.094714 -3.133334 5.627073 3.403259 2 4
1.071045 1.74063 1.662716 2.345848 2.031055 1.992184 2.354104 -0.2924069 1.239981 0.3871552 1.289344 0.3831811 1.186984 3.835087 2.719691 3.388328 1.458149 1.125066 0.2265266 1.250003 2.391487 0.7331839 -2.664332 0.6608161 -2.526748 0.7300808 -3.166796 -2.60299 -3.151514 -2.70702 -0.427647 -2.616307 -2.487929 -2.889425 -4.411184 -2.724155 -3.470502 -2.78094 -3.336617 -3.274585 5.197951 4.129911 2 8
1.181996 1.778527 1.820897 2.048204 2.241291 2.30464 2.056586 0.09452863 0.9571882 0.8345512 1.066738 0.7897389 0.9462753 3.865854 3.26957 3.581809 1.74434 0.7579845 0.6828143 0.9734827 1.928767 0.2510367 -2.488853 0.4067117 -2.369807 0.4532036 -3.721899 -2.859762 -3.424616 -2.539584 -0.7885979 -2.500912 -2.491605 -2.782677 -4.479041 -2.596952 -3.460525 -2.647631 -3.335682 -3.234843 4.812672 4.874229 2 12
1.273785 1.677672 2.072167 1.679124 2.454237 2.60218 1.940486 0.4105754 0.6199909 1.107256 0.8041919 1.008974 0.6624672 4.011461 3.817477 3.769212 2.068528 0.5367681 0.9553196 0.6402085 1.48866 -0.1291264 -2.427649 0.07292163 -2.342325 0.0770092 -4.129916 -2.973895 -3.512851 -2.500555 -0.9147909 -2.48752 -2.405817 -2.777531 -4.414901 -2.531362 -3.315278 -2.607171 -3.204031 -3.250674 4.799388 5.375827 2 16
1.322219 1.760902 2.260888 1.538621 2.727436 2.978079 2.139582 0.4528811 0.4198371 1.082964 0.6225569 0.9781933 0.4680897 4.282373 4.39455 4.045137 2.307844 0.4976584 0.9166788 0.4124171 1.223851 -0.3518521 -2.580059 -0.3177285 -2.52601 -0.3273655 -4.32176 -2.972167 -3.479159 -2.670204 -0.959868 -2.666892 -2.352272 -2.946476 -4.356159 -2.666249 -3.139214 -2.766323 -3.017661 -3.352995 4.992884 5.944985 2 20
1.175249 2.136112 2.197797 1.48463 3.022238 3.393679 2.490825 0.2585466 0.3544436 0.8202662 0.5160256 0.7699247 0.3517401 4.57847 4.965601 4.394026 2.383994 0.6123421 0.6672807 0.3217826 1.175776 -0.4297273 -2.836878 -0.6495366 -2.800164 -0.6387668 -4.299074 -2.975845 -3.352165 -2.920474 -1.048916 -2.922965 -2.387787 -3.187495 -4.259943 -2.928171 -2.978932 -3.011054 -2.855673 -3.365855 5.043313 6.735381 2 24
0.9618645 2.541603 2.13444 1.592535 3.311931 3.748643 2.896795 0.05138493 0.4009579 0.5164361 0.5375988 0.5357023 0.357874 4.795611 5.393438 4.780107 2.28289 0.7868888 0.4311496 0.3815222 1.191277 -0.4642705 -3.081763 -0.8982866 -3.054844 -0.8634511 -4.204997 -3.065733 -3.20257 -3.142028 -1.288915 -3.143649 -2.514171 -3.390032 -4.065725 -3.190707 -2.913758 -3.229949 -2.816547 -3.229751 4.814989 7.315015 2 28
0.8168783 2.600493 2.320944 1.912281 3.55391 3.956215 3.193093 0.01592766 0.4585751 0.3336746 0.5922641 0.3881803 0.4237199 4.911856 5.571772 5.081696 2.046409 0.9222131 0.3246571 0.4473014 1.103238 -0.5191411 -3.193856 -1.134745 -3.168425 -1.115003 -4.171474 -3.199073 -3.074214 -3.213434 -1.650089 -3.204362 -2.65613 -3.438991 -3.787077 -3.307254 -2.940081 -3.286556 -2.861397 -2.989624 4.499146 7.437352 2 32
0.8095624 2.300821 2.617145 2.225414 3.680172 3.972639 3.074416 0.1069214 0.364362 0.1985484 0.4675582 0.2705129 0.3508801 4.969692 5.565158 5.157543 1.72234 0.9978634 0.2210085 0.3187837 0.9478321 -0.5391079 -3.087017 -1.283512 -3.053634 -1.314308 -4.157267 -3.297204 -2.889738 -3.078898 -2.001513 -3.035367 -2.756242 -3.280943 -3.468619 -3.169579 -2.977643 -3.09632 -2.861968 -2.727431 4.206629 7.530569 2 36
1.042489 1.963788 2.79843 2.331221 3.695822 3.872414 2.657199 0.2540731 0.1807599 -0.006837899 0.2550142 0.06959348 0.1769326 5.030882 5.486703 5.051924 1.345373 1.065045 0.005612709 0.07604685 0.8403742 -0.4938141 -2.931069 -1.278709 -2.913811 -1.3432 -4.114282 -3.427664 -2.579428 -2.960712 -2.169121 -2.875951 -2.733964 -3.121389 -3.115241 -2.968898 -2.844511 -2.908859 -2.646594 -2.596905 3.968048 7.862422 2 40
1.415109 1.746306 2.841007 2.268727 3.688504 3.802421 2.407141 0.604179 0.07059705 -0.1588377 0.1345059 -0.1442265 0.05408274 5.081821 5.358016 4.916992 0.9719374 1.192939 -0.1720108 -0.09843877 0.7180112 -0.4626448 -2.927393 -1.240631 -2.945455 -1.320682 -4.109396 -3.75317 -2.261895 -3.013236 -2.126946 -2.919838 -2.598377 -3.13644 -2.768546 -2.929932 -2.52108 -2.929534 -2.260666 -2.620482 3.963867 8.184155 2 44
1.637657 1.55834 2.92606 2.254173 3.739967 3.789472 2.51542 1.027028 0.09147103 -0.1777474 0.118523 -0.2643881 0.04653658 5.02265 5.167367 4.812283 0.6562081 1.374721 -0.2113812 -0.1193877 0.4657016 -0.5419572 -2.973544 -1.276799 -3.010027 -1.387797 -4.162734 -4.238755 -2.098633 -3.067948 -2.067306 -2.986139 -2.505177 -3.18233 -2.542312 -2.949106 -2.301969 -2.994209 -2.033286 -2.651863 4.196442 8.344666 2 48
1.610094 1.32217 3.170281 2.403698 3.825971 3.697556 2.834218 1.096791 0.2827968 -0.2381666 0.2643804 -0.391086 0.2178095 4.784003 4.919173 4.729869 0.3615692 1.531016 -0.296947 0.08027212 0.1368459 -0.7708418 -2.848315 -1.378242 -2.869527 -1.507194 -4.260068 -4.67911 -2.108041 -2.915166 -2.082932 -2.81594 -2.460818 -3.047883 -2.473062 -2.797949 -2.280011 -2.869123 -2.063412 -2.566095 4.347349 8.103989 2 52
1.560306 1.213691 3.370699 2.626845 3.860651 3.521026 3.073789 0.8544301 0.6297261 -0.3859466 0.6131327 -0.547741 0.5484729 4.387724 4.618356 4.661505 -0.01246824 1.621624 -0.4742152 0.4718182 -0.188448 -1.114248 -2.536863 -1.538007 -2.500539 -1.627974 -4.471281 -4.976647 -2.288762 -2.562497 -2.142694 -2.417671 -2.383145 -2.742763 -2.515429 -2.450299 -2.291058 -2.538032 -2.15446 -2.357549 4.262377 7.322739 2 56
1.690874 1.391417 3.357498 2.802762 3.875113 3.408189 3.084454 0.7251978 1.048691 -0.4355764 1.056636 -0.5628666 0.9438449 3.964256 4.306499 4.61238 -0.4554226 1.666939 -0.5212733 0.9332829 -0.4896109 -1.454838 -2.339728 -1.701444 -2.241231 -1.7235 -4.75039 -5.17661 -2.582596 -2.340984 -2.171273 -2.179754 -2.264101 -2.575424 -2.559305 -2.241469 -2.192128 -2.329 -2.11922 -2.184755 4.173449 6.551521 2 60
1.923193 1.594004 3.341694 2.909804 3.975075 3.336469 3.043737 0.8486844 1.461197 -0.3965972 1.478053 -0.4854518 1.351538 3.616173 4.086984 4.61866 -0.8333275 1.694884 -0.4672461 1.345437 -0.7215236 -1.688683 -2.488091 -1.736334 -2.376912 -1.704168 -4.919607 -5.31534 -2.799834 -2.506766 -2.072681 -2.381869 -2.061032 -2.741845 -2.476816 -2.445335 -1.903255 -2.510954 -1.887573 -2.153161 4.178792 6.270004 2 64
2.100262 1.627612 3.448305 2.915092 4.133968 3.223793 3.171157 1.070953 1.757772 -0.419455 1.786944 -0.4974509 1.677152 3.281639 3.992227 4.659396 -1.038589 1.754396 -0.509402 1.589252 -0.8756666 -1.802591 -2.773665 -1.637313 -2.694484 -1.563402 -4.96605 -5.399332 -2.810647 -2.832322 -1.890839 -2.753898 -1.747822 -2.981202 -2.228504 -2.809535 -1.475942 -2.834064 -1.486164 -2.090188 4.08318 5.845644 2 68
2.085644 1.664716 3.443502 2.770502 4.277498 3.110917 3.522295 1.173074 1.885397 -0.4773192 1.953803 -0.5780922 1.825276 2.893303 3.962466 4.666124 -1.093856 1.865442 -0.6112031 1.681113 -1.011147 -1.846692 -2.940125 -1.518289 -2.882259 -1.41038 -5.003568 -5.436547 -2.629012 -3.031674 -1.671145 -2.949418 -1.369931 -3.053166 -1.806344 -3.002145 -0.969222 -2.979427 -0.9540372 -1.824943 3.87674 4.391984 2 72
1.96288 1.818777 3.28741 2.679937 4.474875 3.114282 3.984339 1.144745 1.811464 -0.5708749 1.923061 -0.696234 1.722223 2.52947 4.008781 4.65554 -1.100109 1.95218 -0.7351016 1.627854 -1.12828 -1.8867 -2.997559 -1.499906 -2.924689 -1.380698 -5.001023 -5.369891 -2.399309 -3.109499 -1.421741 -2.983137 -1.052698 -3.020351 -1.311769 -3.033595 -0.4742022 -2.985813 -0.4645076 -1.466321 3.739843 2.576288 2 76
2.044911 1.973715 3.269014 2.895588 4.842343 3.38378 4.304568 1.30072 1.510838 -0.719096 1.625206 -0.8333744 1.363611 2.38154 4.217549 4.70858 -1.026087 2.007309 -0.8695732 1.342149 -1.100976 -1.87605 -3.046715 -1.660996 -2.960853 -1.578694 -4.824284 -5.109288 -2.304056 -3.158941 -1.343415 -3.035217 -1.040844 -3.01761 -1.012408 -3.053179 -0.3259758 -3.021441 -0.3627868 -1.316364 3.77144 1.655213 2 80
2.275003 1.937801 3.452103 3.306136 5.323009 3.80509 4.285244 1.582195 1.147842 -0.8201759 1.236973 -0.9045971 0.9662643 2.482687 4.577285 4.853851 -0.7771667 2.108168 -0.9317349 0.9690855 -0.8840213 -1.721018 -3.121932 -1.896505 -3.070866 -1.890553 -4.491107 -4.672368 -2.327455 -3.231487 -1.608436 -3.131256 -1.378956 -3.084122 -0.9482998 -3.109634 -0.6550385 -3.105354 -0.6931898 -1.423603 3.84749 1.722506 2 84
2.403798 1.737375 3.593008 3.610255 5.708004 4.064755 3.912159 1.608481 0.8689089 -0.8586058 0.9435186 -0.9353504 0.692763 2.562809 4.90071 5.00498 -0.4667448 2.172096 -0.9703785 0.7025173 -0.6541023 -1.54421 -3.155521 -2.077545 -3.154806 -2.10986 -4.144025 -4.206181 -2.337809 -3.296564 -2.036715 -3.158458 -1.716383 -3.106064 -0.8366158 -3.132036 -0.9853906 -3.117311 -0.9822689 -1.452336 3.741846 2.207769 2 88
2.507541 1.578534 3.684735 3.670574 5.947958 4.159931 3.451502 1.507667 0.701434 -0.9224567 0.7630459 -1.012615 0.5375783 2.452402 5.06042 5.057933 -0.2671458 2.041545 -1.076846 0.5567123 -0.5586304 -1.546232 -3.148363 -2.214578 -3.128771 -2.221392 -3.863232 -3.858588 -2.324291 -3.295638 -2.303709 -3.142026 -1.781374 -3.051218 -0.5575215 -3.114184 -0.934762 -3.058401 -0.8894449 -1.311079 3.520778 2.381952 2 92
2.622954 1.505017 3.920445 3.499365 6.110614 4.27693 3.185777 1.605267 0.6727309 -1.034292 0.7079535 -1.117499 0.5137441 2.22862 5.108068 4.936224 -0.1880692 1.705294 -1.198605 0.518879 -0.5690189 -1.739179 -3.136791 -2.30619 -3.062582 -2.301687 -3.663064 -3.679267 -2.292641 -3.223547 -2.280751 -3.140098 -1.606176 -2.99597 -0.2592719 -3.083114 -0.6515531 -2.986316 -0.5542483 -1.143284 3.334296 1.761036 2 96
2.658304 1.444986 4.196965 3.167023 6.092562 4.388919 3.020802 1.811902 0.7951286 -1.089502 0.820025 -1.148474 0.6495917 1.914297 5.033878 4.591825 -0.2032725 1.275795 -1.207728 0.6237763 -0.6037617 -1.994708 -3.094788 -2.263017 -3.022984 -2.282666 -3.521504 -3.620878 -2.158282 -3.135997 -2.014604 -3.135897 -1.29493 -2.954269 -0.05248477 -3.037498 -0.3377442 -2.915051 -0.2077932 -0.9800453 3.103204 0.6890375 2 100
2.636353 1.385882 4.32917 2.89318 5.858647 4.39336 2.81882 1.833188 1.017998 -1.035244 1.068896 -1.083258 0.8944925 1.503578 4.765966 4.124135 -0.2724336 0.8732867 -1.092993 0.8486769 -0.5968508 -2.190495 -3.037052 -2.03432 -3.004512 -2.057675 -3.385412 -3.551465 -1.915265 -3.08468 -1.593822 -3.130218 -0.9624547 -2.924587 0.05010536 -3.002195 -0.06820202 -2.888693 0.02358549 -0.9031506 2.820012 -0.3241014 2 104
2.490268 1.366515 4.251375 2.798823 5.569002 4.276169 2.628876 1.569178 1.192065 -0.9252059 1.268103 -0.966775 1.094441 1.083167 4.332764 3.684948 -0.291213 0.5250201 -0.9390507 1.029887 -0.5208554 -2.327497 -3.003322 -1.732057 -3.015748 -1.730207 -3.233439 -3.355806 -1.65177 -3.079653 -1.095071 -3.121132 -0.6174063 -2.907336 0.1414346 -2.997138 0.2448215 -2.895412 0.2499177 -0.875689 2.542502 -1.057057 2 108
2.131326 1.400331 3.894358 2.726044 5.271966 3.956298 2.481596 1.144808 1.251117 -0.8178759 1.328226 -0.8399551 1.173789 0.7052783 3.782177 3.321475 -0.255058 0.2363987 -0.8073563 1.075897 -0.4140452 -2.44715 -3.030818 -1.4227 -3.101688 -1.404615 -3.084915 -3.068211 -1.384082 -3.142356 -0.512426 -3.152989 -0.1474688 -2.911372 0.4193302 -3.063081 0.7932063 -2.916556 0.7362684 -0.6857142 2.126798 -1.346386 2 112
1.771568 1.436219 3.449054 2.587372 4.958559 3.425775 2.416296 0.7682706 1.235714 -0.8246453 1.320991 -0.8131523 1.170333 0.396779 3.198881 3.053294 -0.25624 0.03900272 -0.7946943 1.046392 -0.2993949 -2.500145 -3.097199 -1.078681 -3.195191 -1.05722 -2.917895 -2.810865 -1.123941 -3.20849 0.1166956 -3.230912 0.3831125 -2.926867 0.8874323 -3.15564 1.467068 -2.94032 1.401629 -0.375568 1.57179 -1.495356 2 116
1.719092 1.453304 3.248414 2.515326 4.742006 2.945977 2.50316 0.6349629 1.255092 -0.9409838 1.364045 -0.9056289 1.210052 0.2675787 2.749381 2.913266 -0.2935213 -0.06863148 -0.9090714 1.08882 -0.1530534 -2.405321 -3.248225 -0.7549675 -3.29437 -0.7177671 -2.694049 -2.689821 -0.8877859 -3.286795 0.6004417 -3.38391 0.6863493 -3.032133 1.290969 -3.263531 1.870768 -3.036265 1.813669 -0.3042126 1.282292 -1.885093 2 120
1.972185 1.440955 3.283901 2.63638 4.665893 2.710948 2.661885 0.8145311 1.455429 -1.014356 1.581538 -0.9908173 1.431885 0.3277182 2.47861 2.880895 -0.322008 -0.07507753 -1.014554 1.319824 -0.02679699 -2.17207 -3.560246 -0.5103095 -3.520031 -0.4496869 -2.474848 -2.749485 -0.6519805 -3.534445 0.8388471 -3.668945 0.6386666 -3.324753 1.441432 -3.494003 1.827594 -3.301674 1.795875 -0.578746 1.48252 -2.252724 2 124
2.223733 1.36834 3.265759 2.807076 4.607193 2.558329 2.652957 1.127854 1.811736 -0.9979824 1.948341 -1.006728 1.774997 0.4128982 2.302546 2.922494 -0.3606848 0.02615465 -1.046708 1.684581 -0.01686213 -1.938799 -3.927527 -0.2984925 -3.836737 -0.243073 -2.378813 -2.93958 -0.4543608 -3.93514 1.020582 -4.008228 0.52912 -3.712567 1.347163 -3.83798 1.684484 -3.658202 1.704391 -0.8750095 1.796689 -2.104376 2 128
