Fp1 Fp2 AF3 AF4 Fz F3 F4 F7 F8 FC5 FC6 FT7 FT8 Cz FC1 FC2 C3 C4 T7 T8 A1 A2 CP1 CP2 CP5 CP6 TP7 TP8 Pz P3 P4 P7 P8 PO9 PO10 PO3 PO4 PO7 PO8 O1 O2 Oz ID time
-0.7198905 -0.4712675 0.5952759 -0.636644 0.296145 2.477897 -2.772284 1.763412 -1.75144 2.638074 -2.170364 1.246337 -2.250046 0.09068108 1.161283 -2.292163 0.664735 -2.823447 2.533753 -1.260735 0.6268538 -0.1186535 1.973916 -2.136737 2.97596 -0.1838823 0.2041901 1.124344 -0.1878543 2.089989 -0.9558045 1.417688 0.8323734 0.7307531 0.8542782 0.7466779 0.9140764 0.5295463 0.9427356 0.4713784 -3.186811 -5.984302 1 -168
-1.398712 -0.4016897 0.6040179 -0.548955 0.2266189 1.736945 -2.881832 1.750677 -1.751882 3.141937 -1.925635 1.751085 -1.986108 0.139986 1.114825 -2.261743 0.9084308 -2.657661 3.380528 -0.70025 0.8463356 0.0891253 2.187165 -1.60733 3.309931 0.2188893 0.372088 1.322354 0.03159425 2.2388 -0.5837337 1.795489 0.927573 0.7754976 0.9914327 0.7195547 1.041552 0.4981637 1.040213 0.5497904 -3.181985 -11.82303 1 -164
-1.951545 -0.3524791 0.7559524 -0.5115042 -0.04013131 0.6692896 -3.097738 1.655684 -1.601261 3.314469 -1.45075 2.376119 -1.457319 0.07250439 0.9341242 -2.36026 1.092754 -2.462779 4.314175 -0.2511025 1.071593 0.1707487 2.519554 -1.105009 3.723721 0.6522524 0.5623472 1.549333 0.2877007 2.449995 -0.2095336 2.293614 0.997044 0.8419139 1.114791 0.7878866 1.13091 0.6733902 1.141341 0.7410424 -3.108252 -17.93462 1 -160
-1.517116 -0.2048202 0.3973005 -0.3405266 -0.5572042 -0.1747302 -3.456179 1.529835 -1.490599 2.92863 -1.092399 2.448847 -1.066577 -0.1959078 0.5903464 -2.694528 1.006174 -2.41276 4.29335 -0.3251283 1.103617 0.06759996 2.581723 -0.8339773 3.672867 0.8396589 0.6785686 1.624055 0.4678359 2.598429 -0.06251314 2.431697 0.9780058 0.9062466 1.12459 0.9463069 1.11245 0.9285971 1.164576 0.969999 -3.237573 -17.72883 1 -156
-0.3532638 0.02681259 -0.3837729 -0.04842354 -1.080595 -0.4583931 -3.822955 1.537223 -1.553043 2.160213 -1.191478 1.664355 -1.186205 -0.4953107 0.1990872 -3.074862 0.6965724 -2.439142 3.258304 -0.9472513 0.9733958 -0.04324511 2.328486 -0.7738316 3.26587 0.6582425 0.7228957 1.560242 0.5460323 2.657974 -0.1575853 2.197104 0.9102148 0.9786768 1.053433 1.169022 1.024452 1.157897 1.150665 1.236073 -3.61609 -11.50773 1 -152
0.5185708 0.1599454 -0.8318739 0.1190071 -1.368261 -0.3273306 -3.999694 1.665624 -1.687613 1.324021 -1.527187 0.7752771 -1.577932 -0.6892479 -0.1199022 -3.288656 0.378052 -2.354389 2.336216 -1.459594 0.8547013 -0.008784603 2.02773 -0.6803264 3.068387 0.2832105 0.7296708 1.490035 0.6308701 2.697693 -0.2752642 2.077874 0.9089199 1.090917 1.042752 1.428711 0.9927582 1.377999 1.22597 1.582451 -4.011673 -6.579652 1 -148
0.6427768 0.05687561 -0.5876423 -0.009725105 -1.441282 0.08232186 -3.841458 1.628442 -1.637632 0.6679353 -1.67355 0.5873463 -1.761523 -0.7889095 -0.3121015 -3.325766 0.1906315 -2.174993 2.244903 -1.338974 0.7955822 0.08423775 1.851986 -0.4664745 3.221631 -0.05763876 0.6918777 1.431525 0.7187403 2.701698 -0.2522096 2.239583 0.9883127 1.146547 1.101866 1.593018 1.029671 1.52542 1.346066 1.867864 -3.991849 -6.775119 1 -144
0.1788165 -0.3085174 0.1178085 -0.4373209 -1.382835 0.6117352 -3.288099 1.556274 -1.430115 0.5724999 -1.549077 1.14952 -1.621556 -0.8072228 -0.3169618 -3.22834 0.2065366 -1.985713 2.80232 -0.9217994 0.7659191 0.1277679 1.822495 -0.2685856 3.389007 -0.3103389 0.6441599 1.379552 0.7553226 2.662625 -0.1470577 2.55116 1.060427 1.113027 1.152626 1.680212 1.061997 1.602434 1.397219 1.965113 -3.72582 -10.59729 1 -140
-0.5064102 -0.7404416 0.8177574 -0.9212215 -1.265118 1.02716 -2.555867 1.751113 -1.313427 1.119032 -1.337858 1.877972 -1.395423 -0.7781265 -0.1757755 -3.049365 0.4313141 -1.823673 3.453959 -0.7545426 0.7671353 0.1447831 1.906773 -0.1688103 3.296976 -0.4029569 0.643631 1.344259 0.7735733 2.60278 -0.07699334 2.882405 1.081608 1.095848 1.186038 1.824959 1.096938 1.688903 1.398455 1.98835 -3.756619 -15.17914 1 -136
-1.175148 -0.9527196 1.107813 -1.147476 -1.236002 1.293737 -2.059035 1.88307 -1.282788 1.742502 -1.152188 2.192421 -1.21959 -0.7639768 -0.07017805 -2.897516 0.6523387 -1.694396 3.72858 -0.8648041 0.7660702 0.1737376 1.982537 -0.1105727 3.018597 -0.2793683 0.688961 1.286718 0.7789021 2.495473 -0.08004656 3.064907 1.084017 1.133817 1.208268 1.979263 1.160932 1.756065 1.39239 2.084625 -3.846603 -17.82342 1 -132
-2.009958 -0.9473919 0.9391186 -1.124005 -1.34147 1.380137 -1.909304 1.526329 -1.185028 1.956201 -0.9771269 1.974678 -1.044753 -0.7560011 -0.09478749 -2.796502 0.6578236 -1.486048 3.635248 -0.8692793 0.75224 0.2453249 1.974419 0.05381905 2.809315 -0.01063003 0.7757374 1.246376 0.7997955 2.413421 -0.08520672 3.165437 1.13585 1.253753 1.237522 2.141421 1.236363 1.841273 1.412852 2.278164 -3.438411 -18.76657 1 -128
-3.070694 -0.869104 0.5978609 -1.016353 -1.456201 1.068155 -1.914279 0.8940898 -1.017116 1.742826 -0.7395445 1.530061 -0.7782393 -0.7503006 -0.2141615 -2.679266 0.5207214 -1.172677 3.461075 -0.4295756 0.7558361 0.3422021 1.947992 0.3393556 2.767071 0.3069111 0.8787321 1.27488 0.8544055 2.444552 -0.005998482 3.314162 1.222755 1.412441 1.287629 2.349211 1.28627 1.968063 1.452665 2.397663 -2.699676 -19.60445 1 -124
-3.727151 -0.7526874 0.290512 -0.8702341 -1.524202 0.278366 -1.994122 0.5811176 -0.904887 1.395226 -0.4545636 1.3441 -0.4346595 -0.7649429 -0.3656067 -2.570969 0.4632422 -0.9565322 3.426879 0.131204 0.7844706 0.3651194 2.022611 0.5061708 2.869861 0.4833829 0.9455189 1.348731 0.8492248 2.563001 0.09752645 3.394042 1.233706 1.47112 1.305127 2.479288 1.261365 1.996838 1.414964 2.236126 -2.289247 -19.92898 1 -120
-3.393989 -0.5825211 -0.09667344 -0.6590817 -1.60467 -0.6160691 -2.174079 0.8173845 -0.9361309 1.246023 -0.3362341 1.586347 -0.2815693 -0.7715464 -0.4698832 -2.541644 0.5608693 -0.9472673 3.548107 0.1531128 0.8494866 0.2909395 2.218246 0.3972639 3.019705 0.3565034 0.9939719 1.44585 0.769466 2.71426 0.1315985 3.32132 1.151048 1.449253 1.253257 2.491964 1.15261 1.871773 1.282264 1.896794 -2.497553 -19.06052 1 -116
-2.395624 -0.3829847 -0.5832212 -0.4079598 -1.650513 -1.116584 -2.360564 1.174118 -1.059124 1.266667 -0.4334506 1.967544 -0.4005168 -0.7676759 -0.5091209 -2.53938 0.6331789 -1.003751 3.621449 -0.228986 0.9085459 0.2132435 2.367723 0.1722335 3.039014 0.07812092 1.010599 1.498052 0.6903319 2.810211 0.09440431 3.131608 1.035272 1.424118 1.151765 2.453161 1.003153 1.628068 1.131058 1.598094 -2.947738 -17.31447 1 -112
-1.350978 -0.2132527 -0.8636925 -0.212393 -1.52744 -1.089397 -2.31521 1.367375 -1.17355 1.175605 -0.4873505 2.158429 -0.501445 -0.770232 -0.5177328 -2.448383 0.5265116 -0.9817026 3.493702 -0.4609289 0.8676626 0.1735395 2.319692 0.03745979 2.949864 -0.09249897 0.8968418 1.397754 0.5833068 2.730627 0.002175591 2.78847 0.8579113 1.305773 0.9905508 2.278296 0.8198249 1.224283 0.9542103 1.278555 -3.267259 -14.905 1 -108
-0.4770202 -0.045092 -0.9111366 -0.05345881 -1.266168 -0.7800478 -1.90181 1.539127 -1.182457 0.9025126 -0.4119412 2.03928 -0.4854858 -0.7885612 -0.5202606 -2.25751 0.3426358 -0.9040803 3.175333 -0.5772909 0.7207937 0.1129969 2.153124 -0.03840481 2.945944 -0.1102187 0.6662537 1.138015 0.4012062 2.459664 -0.0959888 2.226867 0.5907879 0.9886894 0.7395675 1.833889 0.5760269 0.665745 0.6772537 0.7673828 -3.419252 -11.43697 1 -104
0.2993707 0.159711 -0.9255199 0.1335708 -0.9987716 -0.3920507 -1.332299 1.617024 -1.015707 0.5909703 -0.4099405 1.704512 -0.5178115 -0.8359068 -0.559167 -2.056631 0.22011 -0.8349842 2.686292 -0.8206179 0.5533908 -0.009459734 1.994163 -0.1652405 2.957211 -0.01394121 0.4200807 0.8187069 0.1717517 2.096812 -0.1399672 1.485152 0.2894087 0.5304956 0.4215028 1.173617 0.2934347 0.08077994 0.3079786 0.08979075 -3.31707 -6.750749 1 -100
0.7602705 0.3395256 -0.7969404 0.288023 -0.794503 0.1040628 -0.9567709 1.434224 -0.6803537 0.3416972 -0.5216714 1.287333 -0.6156163 -0.8245009 -0.6098028 -1.842713 0.162386 -0.7143636 2.042851 -1.024869 0.4338702 -0.1072342 1.789533 -0.2591669 2.663548 0.1995913 0.239382 0.5403427 -0.02526435 1.72436 -0.1267075 0.7469715 0.04478079 0.1348331 0.1435178 0.5122738 0.05141085 -0.3947923 -0.02556404 -0.5555338 -2.794284 -2.314159 1 -96
0.2585812 0.435015 -0.521471 0.3497641 -0.7425634 0.5887243 -0.913253 1.021743 -0.2180233 0.1985442 -0.5155964 0.8946155 -0.6008343 -0.6650998 -0.5879724 -1.556185 0.09560806 -0.4716216 1.437453 -0.8990523 0.3745094 -0.05098731 1.483332 -0.1744857 2.095293 0.442668 0.2034433 0.36521 -0.07884988 1.396511 -0.06026974 0.2499198 -0.03870713 -0.02175548 0.01908716 0.05505861 -0.06550235 -0.6951445 -0.2076647 -0.9454523 -1.810361 -0.1242062 1 -92
-1.019564 0.4477787 -0.2772616 0.3360018 -0.833147 0.8375182 -1.075666 0.5815262 0.2673697 0.2902825 -0.3003882 0.6365435 -0.3886981 -0.4200484 -0.4408456 -1.231593 0.02297032 -0.1827178 1.099344 -0.4565887 0.3569647 0.1173626 1.121474 0.01933867 1.623504 0.5592452 0.2647242 0.2931855 -0.02767125 1.137797 0.01632378 0.03808355 -0.02284553 -0.007306251 -0.01695318 -0.1712393 -0.1018268 -0.8605368 -0.305422 -1.060994 -0.6649632 -0.2011211 1 -88
-1.995981 0.4012349 -0.0268787 0.2742522 -0.8569891 0.8811209 -1.168058 0.406132 0.5931488 0.7218481 -0.05143863 0.438755 -0.1033634 -0.1704791 -0.1337947 -0.9122899 0.08354637 0.0280791 0.889688 -0.0002254796 0.3508282 0.2053245 0.7306837 0.09955049 1.313776 0.447958 0.2686242 0.2281284 -0.05023139 0.8918062 -0.004850561 -0.122352 -0.1352701 -0.05742201 -0.1474358 -0.3151159 -0.2192917 -0.9897298 -0.4787876 -1.143883 0.0948909 -0.2654963 1 -84
-2.364018 0.3367012 0.1562666 0.2099161 -0.7387342 0.9014768 -0.9898776 0.3700299 0.696313 1.203439 0.1204705 0.1526135 0.1393161 0.02402089 0.2610869 -0.649056 0.2887214 0.1165243 0.4841868 0.2513827 0.3432093 0.1104435 0.3325222 0.003709381 0.910156 0.2027621 0.2008907 0.07058188 -0.1668509 0.5793126 -0.1314444 -0.4223531 -0.3795325 -0.2514807 -0.3828541 -0.4853812 -0.4195721 -1.093887 -0.7047374 -1.29248 0.4197503 1.586532 1 -80
-2.49505 0.3427081 0.04167769 0.2425861 -0.6212603 0.9198439 -0.6141359 0.1209 0.6572384 1.351018 0.2940392 -0.02849189 0.3695143 0.1129717 0.5844671 -0.4871607 0.4611085 0.1428979 -0.07200548 0.3777191 0.3127368 -0.05708996 -0.08102494 -0.09955289 0.227633 0.08099108 0.1571458 -0.1590266 -0.2365703 0.1743529 -0.2344478 -0.7613411 -0.5140383 -0.4661738 -0.533168 -0.6679283 -0.5088801 -1.092185 -0.7975601 -1.296636 0.6745989 4.177608 1 -76
-2.274925 0.4106907 -0.2404155 0.3617378 -0.5006096 0.7753303 -0.2161575 -0.1936521 0.491219 1.29845 0.5154307 0.1658995 0.6245636 0.1561899 0.7940222 -0.304387 0.512087 0.2155994 -0.435728 0.4780578 0.2033578 -0.1181102 -0.5021862 -0.07600986 -0.6546549 0.1204215 0.1276495 -0.3655694 -0.2006545 -0.2987603 -0.210645 -0.9500853 -0.4115803 -0.6057361 -0.4543737 -0.8247128 -0.3814688 -0.9986095 -0.6516424 -1.025983 0.8406607 4.805293 1 -72
-1.484869 0.3850466 -0.3191785 0.3814253 -0.265037 0.5279544 0.2201981 -0.4474502 0.2554442 1.229601 0.7651764 0.3797833 0.8923336 0.2427672 0.9191738 0.0368309 0.4731885 0.4061932 -0.5312665 0.6330073 0.03010393 -0.03534091 -0.7912784 0.09004269 -1.352638 0.1638716 0.04369437 -0.5137604 -0.1047293 -0.7742926 -0.07374305 -0.9826127 -0.1840253 -0.680388 -0.2363343 -0.9695534 -0.1624478 -0.9563213 -0.3852178 -0.6561899 0.9649998 2.865818 1 -68
-0.3452 0.2473989 -0.2222397 0.2632234 0.00628231 0.3788094 0.7513996 -0.8485638 0.1368483 0.9470649 1.021738 0.04157752 1.138093 0.2972354 0.8864044 0.4044743 0.3539487 0.6439529 -0.6316299 0.9524346 -0.1518425 0.05721877 -0.8368584 0.29778 -1.440042 0.1104919 -0.1192422 -0.6423799 -0.04739144 -1.120523 0.01338585 -1.038298 -0.08847226 -0.7643942 -0.15035 -1.130673 -0.1014592 -1.044111 -0.2810298 -0.5106956 1.301048 1.264687 1 -64
0.7751619 0.1812976 -0.2137317 0.2046937 0.2064032 0.3102822 1.193149 -1.167283 0.1761394 0.3226111 1.140308 -0.6503694 1.223841 0.1960031 0.6583667 0.5699931 0.1554742 0.6964718 -0.8975567 1.158352 -0.351583 0.009432739 -0.7006302 0.2893982 -0.9217589 -0.1442911 -0.3656203 -0.7653142 -0.1449556 -1.232878 -0.1154162 -1.254176 -0.2664505 -0.9130653 -0.3290723 -1.272093 -0.3055211 -1.172895 -0.4551979 -0.7183704 1.494449 3.396412 1 -60
1.412095 0.2366574 -0.1861222 0.2603961 0.3299855 0.2837652 1.272592 -0.9619871 0.2446786 -0.3521584 0.9484701 -0.9638351 1.000217 0.03689192 0.3931739 0.5446789 -0.01366805 0.5036374 -1.111369 0.7388639 -0.4975224 -0.09736666 -0.4730975 0.01518261 -0.3170036 -0.5167487 -0.5787672 -0.8005694 -0.2971127 -1.166003 -0.3597753 -1.501552 -0.5448465 -1.014012 -0.5857813 -1.316312 -0.5742614 -1.212823 -0.6845456 -1.019482 1.139699 7.78566 1 -56
1.311829 0.2820857 0.05984011 0.2980742 0.3820017 0.369015 0.957399 -0.3306487 0.2689015 -0.5612234 0.4926845 -0.7194006 0.5134043 -0.003326389 0.2548046 0.5012831 0.001934062 0.2900934 -0.9638182 -0.3521036 -0.4591638 -0.04309503 -0.1392044 -0.2696034 0.01422887 -0.7538742 -0.5745739 -0.6298577 -0.2712304 -1.003546 -0.5078881 -1.463284 -0.6564349 -0.8759418 -0.6913639 -1.130229 -0.6628706 -1.104688 -0.7234209 -1.05098 0.5245668 9.419559 1 -52
0.8954521 0.2580572 0.4049811 0.2660897 0.4126936 0.5580457 0.5782203 0.2876227 0.2442933 -0.3944722 0.05279205 -0.4650073 0.04615341 0.05318085 0.196092 0.5092556 0.124545 0.1460148 -0.6236277 -1.573199 -0.3022303 0.1115721 0.2252369 -0.4674928 0.1769003 -0.8130116 -0.4087014 -0.3072695 -0.1204998 -0.7768506 -0.572552 -1.096332 -0.5774031 -0.5542868 -0.6431699 -0.6840737 -0.5979882 -0.8654429 -0.5969617 -0.7786606 0.05567915 7.616282 1 -48
0.6506638 0.1694468 0.6423846 0.1719173 0.4382062 0.6130995 0.4577704 0.5476635 0.2150996 -0.4479037 -0.0818527 -0.41668 -0.09827247 0.07326061 0.05462448 0.5192762 0.1429942 0.01542504 -0.4225184 -2.083264 -0.1729618 0.1408555 0.3859547 -0.5555673 0.2262696 -0.6928275 -0.2777393 -0.03450415 -0.03371072 -0.5570751 -0.5966523 -0.6643445 -0.4483539 -0.2778392 -0.53435 -0.2256424 -0.4972125 -0.5422756 -0.4192266 -0.4401258 -0.1285923 5.184542 1 -44
0.4545712 0.008975164 0.7002913 0.01096371 0.4154165 0.3165469 0.4711529 0.393378 0.2412912 -0.6502356 -0.003520109 -0.2336651 -0.02453845 0.02290981 -0.1631565 0.4818854 0.08116771 -0.03646823 -0.179723 -1.494803 -0.07481201 0.06227109 0.3229675 -0.3947739 0.1662167 -0.3592524 -0.1861308 0.1511874 0.01643385 -0.3335891 -0.4574678 -0.2012442 -0.2715839 -0.05341361 -0.3437732 0.08428624 -0.3242672 -0.113233 -0.1854223 -0.1316798 -0.035837 1.850737 1 -40
0.2969929 -0.2283671 0.5739388 -0.2180897 0.3710753 -0.1710938 0.4155703 0.09422341 0.2495266 -0.5354974 -0.0934026 0.04057321 -0.1303708 -0.02575376 -0.2995979 0.405694 0.03455354 -0.002693328 0.1423547 -0.4751075 -0.00204701 0.01825151 0.1741097 -0.08942771 0.02576366 0.004424225 -0.07803201 0.3093063 0.1002937 -0.07992051 -0.1774257 0.3166294 -0.01109041 0.2161784 -0.04657995 0.3491678 -0.05009615 0.4158401 0.08425859 0.2323607 0.1154381 -2.271967 1 -36
0.5990996 -0.4822064 0.291928 -0.4493712 0.3327693 -0.5487304 0.3352767 -0.06949889 0.1481527 -0.2248351 -0.3903767 -0.01094359 -0.4468741 -0.03315856 -0.3539174 0.3488485 -0.06246778 -0.01229108 0.1072775 0.1201497 -0.01504683 0.02376606 -0.06456692 0.0728296 -0.2962245 0.2008898 -0.003514674 0.3716329 0.1503771 0.088428 0.03719859 0.6903809 0.2197171 0.4842767 0.2219719 0.6559431 0.2067816 0.9299259 0.3158074 0.6876281 0.09623697 -4.273165 1 -32
1.146544 -0.6321663 -0.02834804 -0.5595714 0.2732496 -0.7911832 0.2312109 -0.06906895 -0.02261283 -0.1224374 -0.6348021 -0.345929 -0.6884169 -0.008277427 -0.4433532 0.3464308 -0.2242726 -0.0893507 -0.2344702 0.165838 -0.08012161 0.02816736 -0.3341349 0.04557807 -0.6468627 0.2070172 0.04176576 0.3361914 0.121326 0.1902066 0.126003 0.9323778 0.3456087 0.7263668 0.3559064 1.019939 0.349658 1.385538 0.523247 1.192284 -0.06682673 -4.068309 1 -28
1.225437 -0.6570798 -0.2492086 -0.5403843 0.2403487 -1.032725 0.1079791 -0.02151207 -0.2329238 -0.2296853 -0.7130404 -0.4149205 -0.7471386 0.07619787 -0.5002407 0.4153632 -0.3269473 -0.1364154 -0.3419656 0.0101037 -0.08671202 0.02993434 -0.5129586 -0.001027099 -0.8109335 0.09746673 0.1027819 0.3332843 0.1001304 0.3084303 0.2013882 1.220551 0.4361571 0.9374166 0.4389417 1.357378 0.4420835 1.810843 0.744333 1.650196 -0.2552938 -4.475591 1 -24
0.7728218 -0.6392412 -0.2528169 -0.5017347 0.3350226 -1.213217 0.06463535 -0.06806924 -0.4566625 -0.3511579 -0.6622307 -0.09249178 -0.6877938 0.2219421 -0.38408 0.5715927 -0.3186521 -0.1092807 -0.2108267 0.05675247 -0.02976031 0.02753347 -0.6574233 0.05165973 -1.021342 0.01042818 0.1373465 0.3585795 0.1507773 0.2926909 0.3508244 1.430965 0.5416443 1.020028 0.552855 1.465384 0.5690033 2.108442 0.9393022 1.912995 -0.3154307 -5.971008 1 -20
0.342858 -0.6340525 0.006329569 -0.519077 0.5307181 -1.227894 0.0714564 -0.2800429 -0.5816618 -0.5502382 -0.5278022 0.07608665 -0.5431122 0.3498497 -0.1820239 0.7496471 -0.3103268 -0.05975749 -0.2918495 0.5359074 -0.004586447 -0.01071213 -0.8360615 0.189615 -1.416938 0.0229695 0.1016299 0.2869367 0.2115475 0.04379556 0.5415397 1.328238 0.6307957 0.9293648 0.6633086 1.247264 0.6964687 2.1104 1.039654 1.912484 -0.0852043 -6.557466 1 -16
0.3076121 -0.5587919 0.3445038 -0.4922821 0.6853992 -1.124838 0.04354664 -0.5663784 -0.5796771 -0.9288576 -0.2986117 -0.1064408 -0.2985969 0.4034309 -0.09033361 0.8512781 -0.4192696 -0.06421269 -0.5215406 1.237968 -0.07336407 -0.07100251 -0.9424357 0.3609073 -1.61726 0.09509193 0.06071061 0.1147415 0.2372368 -0.2895161 0.7106119 1.008949 0.6846545 0.74049 0.7395184 0.8138117 0.7667442 1.826688 1.035545 1.769329 0.3315544 -6.127002 1 -12
0.3854508 -0.4134988 0.5103599 -0.3845001 0.7143081 -0.9822759 0.02342706 -0.8149801 -0.5664456 -1.38454 -0.07933228 -0.4378867 -0.05819802 0.3838671 -0.1285603 0.8746097 -0.647463 -0.1623871 -0.6279679 1.523427 -0.2336763 -0.130953 -0.8922381 0.4946391 -1.283162 0.1620346 0.08677266 -0.07964218 0.2582631 -0.5533693 0.8436261 0.6791144 0.6922581 0.5293154 0.7746614 0.3808609 0.7924171 1.429308 0.9815476 1.641948 0.6262342 -4.927351 1 -8
0.08479572 -0.3969265 0.5276304 -0.3876238 0.6777357 -0.8815866 0.07123487 -1.035329 -0.5315963 -1.762284 -0.06710281 -0.9322309 0.002198978 0.3358316 -0.1253699 0.9088736 -0.8912767 -0.3283455 -0.7915851 0.9398668 -0.4235413 -0.2107818 -0.7958785 0.522117 -0.6216768 0.1656242 0.1356788 -0.2801227 0.2875856 -0.7381759 0.9283512 0.3306418 0.6656089 0.2944486 0.764289 0.07796887 0.8046638 1.038909 0.9307264 1.538133 0.7940546 -1.625538 1 -4
-0.3292989 -0.4203026 0.5368435 -0.418683 0.7423455 -0.7043186 0.2018367 -1.082972 -0.4013623 -1.848478 -0.3228147 -1.25026 -0.201942 0.3531898 0.06625292 1.018339 -0.9903437 -0.5135826 -0.9437758 -0.1673239 -0.5495942 -0.3203746 -0.7488697 0.4535981 -0.09245327 0.1159959 0.1337102 -0.4773556 0.2675273 -0.8829752 0.9737051 -0.008441112 0.649018 -0.0120348 0.7276903 -0.1555701 0.7884135 0.6717193 0.8786429 1.32576 0.9166212 2.021889 1 0
0.09636033 -0.2531681 0.5399852 -0.2365999 1.055113 -0.1577384 0.454127 -0.7335635 -0.2665568 -1.418739 -0.7522447 -0.8546895 -0.6180902 0.4461274 0.4438618 1.149542 -0.8803133 -0.7349892 -0.7834876 -0.9464607 -0.6336493 -0.4783555 -0.7376933 0.3015838 -0.005056872 0.1082756 0.01575422 -0.6815466 0.107814 -1.052288 0.976963 -0.3198113 0.5641436 -0.4159045 0.5975224 -0.4705642 0.661469 0.2555314 0.7350244 0.8382422 0.7783646 3.305725 1 4
1.764432 0.01207929 0.6261995 0.05278068 1.613526 0.7471089 0.8507013 -0.1743783 -0.1496582 -0.5661207 -1.026904 -0.1226472 -0.9166103 0.5226837 0.9310532 1.249082 -0.6810164 -1.020649 -0.6892056 -0.9408984 -0.804689 -0.7018461 -0.8488359 0.0788929 -0.5940615 0.1908776 -0.2771204 -0.9853421 -0.2143353 -1.436966 0.8614933 -0.8301904 0.2944318 -0.9115388 0.2728294 -0.9774658 0.3487245 -0.3141427 0.4082218 0.1030897 0.4603307 3.796069 1 8
3.603402 0.2206911 0.9420488 0.2555321 2.227405 1.634544 1.372401 0.2403936 0.07821799 0.2614772 -0.9065365 0.3216474 -0.8298849 0.583957 1.426796 1.396588 -0.5308352 -1.249483 -1.033058 -0.5792664 -1.061117 -0.9036379 -1.135407 -0.1019174 -1.735361 0.3584099 -0.6476657 -1.384561 -0.5895647 -2.092653 0.678978 -1.573562 -0.04357438 -1.454341 -0.1185698 -1.60606 -0.04211963 -0.9989908 -0.01828619 -0.6106756 0.410906 5.233759 1 12
3.870512 0.3571014 1.362581 0.3437426 2.645023 2.141664 1.91574 0.4305191 0.4709312 0.7820898 -0.6164796 0.6301234 -0.5772123 0.7082325 1.844771 1.604467 -0.411169 -1.294617 -1.298728 -0.4512757 -1.251136 -0.9882633 -1.398022 -0.1221129 -2.631724 0.6698594 -0.8810381 -1.719642 -0.8317047 -2.685071 0.6894864 -2.146884 -0.200079 -1.949646 -0.3127679 -2.146381 -0.2566013 -1.582692 -0.3322689 -1.106968 0.7870606 5.938538 1 16
2.313795 0.5405409 1.580917 0.4734793 2.77489 2.244669 2.29968 0.5469218 0.8932715 1.208123 -0.3401944 0.9571758 -0.3412709 0.8638704 2.189004 1.701528 -0.2331307 -1.276364 -1.038222 -0.3019144 -1.329851 -1.027426 -1.495474 0.02478207 -2.674067 1.123646 -0.9289942 -1.950774 -0.8906645 -2.928598 0.9573073 -2.309979 -0.1781501 -2.3574 -0.3048736 -2.515295 -0.2621476 -1.952671 -0.4810412 -1.438179 1.25236 4.610768 1 20
0.7696814 0.9141123 1.469323 0.8405241 2.791022 2.157779 2.449191 0.8076943 1.097139 1.749118 0.03103145 1.07879 0.01450113 0.934476 2.497925 1.621539 -0.00783903 -1.367838 -0.5686471 0.3487032 -1.406474 -1.145625 -1.535972 0.2083895 -2.138238 1.460213 -0.9918523 -2.166977 -0.9402943 -2.946182 1.181766 -2.314811 -0.2232778 -2.71607 -0.3399134 -2.81983 -0.3111174 -2.24754 -0.6006512 -1.767175 1.285777 2.847628 1 24
0.8784971 1.315391 1.265907 1.277905 2.875516 2.006726 2.383586 1.165957 1.058661 2.22142 0.3722303 1.013352 0.3617208 0.9203713 2.716643 1.525579 0.1681612 -1.549118 -0.2996596 1.18717 -1.495946 -1.295469 -1.625238 0.2970649 -1.67715 1.465174 -1.169769 -2.337733 -1.061191 -2.987768 1.168885 -2.420829 -0.3726577 -3.004287 -0.4754297 -3.138747 -0.4663573 -2.547745 -0.716193 -2.051359 0.9385217 2.108193 1 28
2.05278 1.433979 1.272295 1.419347 2.931568 1.823922 2.095593 1.252385 1.040698 2.309132 0.4032525 0.9105036 0.3758349 0.9162788 2.709562 1.531595 0.1983976 -1.708506 -0.2943807 1.751606 -1.502485 -1.332327 -1.725064 0.3399169 -1.593499 1.323612 -1.269655 -2.369248 -1.084637 -3.091229 1.082946 -2.544673 -0.4054613 -3.124922 -0.5182458 -3.389563 -0.4880269 -2.70633 -0.6849614 -2.039978 0.8801288 1.817843 1 32
2.826698 1.297073 1.489874 1.263202 2.843706 1.590593 1.668629 0.9434806 1.122705 1.86377 0.214077 0.7564541 0.155503 0.9501148 2.495027 1.573536 0.08496408 -1.789106 -0.328813 2.050518 -1.39926 -1.259668 -1.715204 0.3886944 -1.52203 1.308031 -1.193605 -2.246096 -0.9433317 -3.064246 1.086755 -2.4688 -0.2505279 -3.063686 -0.3833414 -3.454984 -0.2987702 -2.606744 -0.4786034 -1.734985 1.314557 0.9138017 1 36
3.112838 1.131452 1.665176 1.060087 2.688364 1.278687 1.310355 0.490528 1.16321 1.155842 0.09961195 0.4759696 0.03864411 1.017107 2.301329 1.534499 -0.02763644 -1.853415 -0.3282353 2.12653 -1.232116 -1.212902 -1.580341 0.3515223 -1.197258 1.415403 -1.083653 -2.013341 -0.7982956 -2.842457 1.085721 -2.264034 -0.1109972 -2.953674 -0.2498761 -3.378525 -0.1430595 -2.380189 -0.3094026 -1.459119 1.868463 0.04716843 1 40
3.625248 1.014428 1.663941 0.9221422 2.564647 1.035008 1.168665 0.2284292 1.149009 0.7774422 0.09846424 0.301941 0.04847983 1.145337 2.309924 1.406835 0.03461727 -2.000323 -0.3215103 1.961069 -1.041585 -1.246176 -1.381016 0.1672824 -0.9172669 1.461795 -1.042428 -1.749172 -0.7742682 -2.608485 0.9178935 -2.184297 -0.1940858 -2.894559 -0.3234861 -3.308369 -0.2392325 -2.275204 -0.3846448 -1.426583 2.207248 0.1027769 1 44
4.22675 0.9467072 1.743584 0.8484154 2.563052 1.020275 1.190377 0.4465947 1.092227 1.031706 0.002706887 0.770767 -0.04085943 1.386485 2.536016 1.329049 0.3489031 -2.194922 0.101962 1.529177 -0.7960365 -1.246714 -1.031509 -0.1231507 -0.6647721 1.260578 -1.02364 -1.50295 -0.8350441 -2.453169 0.5699425 -2.16063 -0.4599137 -2.830141 -0.5447375 -3.298027 -0.5077977 -2.370023 -0.6279246 -1.523034 2.095816 -0.8061475 1 48
4.222266 0.9603379 2.14071 0.8472781 2.722868 1.185872 1.189919 1.088456 0.9556195 1.6773 -0.2505473 1.802201 -0.2791673 1.755373 2.840923 1.407314 0.8209624 -2.334978 0.9583237 0.7396354 -0.4596334 -1.100147 -0.5342584 -0.4553209 -0.3551964 0.7353668 -0.9143611 -1.269817 -0.9039645 -2.378926 0.128711 -2.102366 -0.7349951 -2.710188 -0.7523826 -3.368033 -0.7616304 -2.559 -0.8497436 -1.536291 1.632334 -3.200823 1 52
3.464259 1.004672 2.72338 0.857604 2.925568 1.401691 1.098156 1.829074 0.7783331 2.214273 -0.5500329 2.722525 -0.558214 2.17021 3.039761 1.563278 1.273532 -2.410394 1.534871 -0.4335322 -0.07385007 -0.891811 -0.07927745 -0.8266394 -0.3066189 -0.03822138 -0.6886302 -1.027734 -0.9729141 -2.351458 -0.3386346 -2.151273 -0.9841998 -2.54848 -0.9572577 -3.488397 -0.9836622 -2.656318 -1.049503 -1.444204 1.154932 -3.944873 1 56
2.447631 0.9579542 3.236093 0.7661697 3.017115 1.572371 0.9775667 2.462877 0.6114445 2.286386 -0.9289356 3.243548 -0.9137253 2.475504 3.065613 1.617683 1.61127 -2.492184 1.595524 -1.7634 0.3106479 -0.7845476 0.2919952 -1.250849 -0.465105 -0.8449026 -0.4260074 -0.7583266 -1.02554 -2.224854 -0.7867002 -2.267085 -1.242593 -2.324372 -1.189903 -3.488053 -1.206114 -2.511968 -1.263049 -1.34466 0.7278595 -1.772344 1 60
1.929818 0.9040833 3.516741 0.6833487 3.014235 1.729246 0.8399248 2.877218 0.5009811 2.003633 -1.425985 3.413825 -1.398057 2.563632 2.98633 1.52077 1.810984 -2.634456 1.411915 -2.563623 0.6285681 -0.76945 0.5967166 -1.60399 -0.5919157 -1.415548 -0.200777 -0.5073051 -1.020135 -2.021414 -1.197386 -2.357665 -1.499536 -2.07509 -1.414688 -3.359801 -1.419934 -2.27935 -1.451892 -1.291539 0.3207169 1.246888 1 64
2.201599 1.063591 3.487962 0.8578379 3.029023 1.936091 0.6678323 2.977695 0.4694555 1.721882 -1.858354 3.28962 -1.822619 2.51952 2.914163 1.422228 1.855525 -2.786732 1.081865 -2.343085 0.8128582 -0.7275584 0.7222127 -1.732203 -0.8181055 -1.696748 -0.0622908 -0.3640449 -0.972558 -1.968132 -1.579571 -2.532655 -1.772882 -1.924646 -1.658741 -3.31247 -1.658181 -2.245333 -1.661547 -1.283864 0.1368903 3.614372 1 68
2.712674 1.358413 3.180788 1.207837 3.051049 1.968511 0.5041336 2.860778 0.4202605 1.665703 -2.052004 3.076195 -1.972754 2.522965 2.873872 1.448882 1.78907 -2.840137 0.7492764 -1.655127 0.8898428 -0.6092852 0.6812664 -1.676048 -1.11601 -1.88048 -0.006972183 -0.3010841 -0.8966609 -2.078253 -1.858041 -2.780833 -2.020759 -1.883599 -1.895446 -3.414299 -1.877696 -2.378554 -1.886801 -1.254894 0.2308821 5.143315 1 72
2.970922 1.460873 2.860053 1.360676 3.018252 1.626668 0.4422665 2.720561 0.3008735 1.8723 -2.033828 2.873127 -1.912565 2.603644 2.815249 1.559118 1.757475 -2.789527 0.6908937 -1.235602 0.9374532 -0.4521272 0.7213675 -1.57164 -1.086751 -2.021246 0.05588653 -0.1976906 -0.7886803 -2.098001 -1.94455 -2.915939 -2.15587 -1.848043 -2.028926 -3.602739 -1.984593 -2.487772 -2.011699 -1.180549 0.3645644 5.336099 1 76
3.209738 1.268859 2.756858 1.1795 2.962918 1.252583 0.604773 2.525344 0.2594716 2.073257 -1.922072 2.556779 -1.829598 2.649189 2.722575 1.640254 1.793294 -2.728431 0.8650573 -0.9434319 0.9702395 -0.3473019 0.9612629 -1.490101 -0.5786635 -2.071675 0.1485497 -0.05842196 -0.7184657 -1.964619 -1.951993 -2.95733 -2.24632 -1.833497 -2.129219 -3.866673 -2.060744 -2.576342 -2.080729 -1.224167 0.5333818 4.645934 1 80
4.055866 0.9822562 2.733344 0.8873358 3.006421 1.172221 1.022509 2.248817 0.3078373 1.972914 -1.800152 2.09955 -1.773564 2.637545 2.628468 1.701092 1.736534 -2.703823 1.024694 -0.5061934 0.9369143 -0.3437631 1.239432 -1.513255 0.211612 -2.235887 0.1534924 0.001904834 -0.7839563 -1.864466 -2.084429 -3.037831 -2.408119 -1.91118 -2.322485 -4.115219 -2.252112 -2.720549 -2.225157 -1.473994 0.7955843 4.519847 1 84
5.712833 0.8401261 2.554358 0.7601015 3.226335 1.190956 1.512616 2.152426 0.1248826 1.749124 -1.706065 1.677113 -1.72865 2.683578 2.587433 1.863835 1.544407 -2.709825 1.162552 -0.379422 0.8511512 -0.3765559 1.42963 -1.760328 1.066046 -2.641836 0.05237779 -0.03355022 -0.9786351 -1.826208 -2.371 -3.094351 -2.61259 -1.997889 -2.532818 -4.188468 -2.505408 -2.872691 -2.407608 -1.722784 0.7625949 4.942188 1 88
7.194852 0.9611132 2.283995 0.9054327 3.502899 1.283539 1.876373 2.416647 -0.3657908 1.772471 -1.682384 1.638275 -1.75969 2.843289 2.620948 2.13148 1.356392 -2.719627 1.407526 -0.9464935 0.8044702 -0.3487805 1.506413 -2.16066 1.607225 -2.963255 -0.001629477 -0.07598729 -1.163039 -1.74516 -2.635131 -3.009784 -2.738967 -1.997915 -2.594313 -4.103625 -2.636302 -2.930633 -2.493582 -1.760488 0.1994606 4.520359 1 92
7.13127 1.253582 2.195073 1.197242 3.694228 1.662859 2.100195 2.876508 -0.7268468 2.088609 -1.735008 2.096351 -1.883526 3.055543 2.688523 2.36036 1.246311 -2.686817 1.764285 -1.64246 0.8301676 -0.2317485 1.415386 -2.397544 1.560806 -2.846418 0.0834088 -0.0736439 -1.195771 -1.641135 -2.659169 -2.775982 -2.695875 -1.938388 -2.476277 -4.00512 -2.581376 -2.850577 -2.419977 -1.625439 -0.3973689 2.185697 1 96
5.716503 1.500182 2.268972 1.422377 3.782285 1.968751 2.220122 3.204304 -0.6675836 2.42184 -1.721116 2.629623 -1.915004 3.251094 2.719724 2.441135 1.197585 -2.617954 2.058592 -1.751332 0.9014537 -0.09672306 1.180151 -2.29241 1.173479 -2.345921 0.2448236 -0.06196633 -1.094243 -1.61149 -2.400258 -2.541245 -2.526092 -1.890988 -2.300485 -4.013031 -2.450383 -2.71822 -2.265019 -1.52494 -0.4587992 -1.037913 1 100
4.358865 1.562633 2.209067 1.477255 3.719333 1.752732 2.116392 3.138186 -0.3130146 2.581815 -1.59208 2.767145 -1.775654 3.392838 2.683914 2.36831 1.217435 -2.585773 2.066454 -1.401483 0.9911039 -0.02186647 0.9574982 -2.028085 0.8227146 -1.772026 0.3921821 -0.09629306 -0.9988235 -1.674981 -2.036664 -2.506227 -2.333238 -1.901721 -2.178787 -4.131746 -2.329528 -2.692379 -2.144528 -1.595042 0.11052 -2.576399 1 104
3.648147 1.418838 2.163458 1.331311 3.500027 1.380673 1.578496 2.802219 0.1391283 2.638125 -1.651788 2.505399 -1.760971 3.47811 2.622491 2.202607 1.290883 -2.6441 1.812095 -1.156276 1.07895 0.01308899 0.8795202 -1.851874 0.6338875 -1.37671 0.5162178 -0.1474606 -0.9648983 -1.7449 -1.743164 -2.626283 -2.13253 -1.929232 -2.084067 -4.204955 -2.16779 -2.789718 -2.043808 -1.732128 1.006267 -1.887334 1 108
3.337885 1.163439 2.500469 1.039639 3.226385 1.360934 0.7126777 2.502589 0.5635364 2.474429 -2.055026 2.147414 -2.044479 3.493354 2.5474 2.020114 1.29278 -2.74897 1.374332 -1.139315 1.113861 0.03989374 0.8329134 -1.755465 0.36214 -1.146445 0.6403754 -0.1832804 -0.9192827 -1.780384 -1.511209 -2.755738 -1.936497 -1.93645 -1.960046 -4.136473 -1.938283 -2.878128 -1.907023 -1.761687 1.818982 -0.0713625 1 112
3.131832 0.9901144 2.955203 0.8098434 2.932999 1.52425 0.006618196 2.197039 0.9428467 1.953796 -2.409002 1.882533 -2.296897 3.372987 2.436127 1.857482 1.138269 -2.803418 0.7477543 -1.009987 1.013234 -0.02823105 0.6217 -1.590293 -0.2345557 -0.8688039 0.7059705 -0.2806124 -0.8343853 -1.807814 -1.245849 -2.882794 -1.810435 -2.004955 -1.836593 -4.013422 -1.737279 -2.859736 -1.783952 -1.713203 2.400964 2.430614 1 116
2.703271 0.9773346 3.143748 0.7618969 2.671241 1.577558 -0.2716889 1.910667 1.233711 1.562435 -2.409399 1.838757 -2.259763 3.127755 2.347398 1.708957 0.9891888 -2.791083 0.3509298 -0.7612922 0.7828678 -0.273928 0.3805083 -1.381272 -0.6910894 -0.5596456 0.6131107 -0.4528875 -0.7852799 -1.715773 -0.964828 -2.877036 -1.764829 -2.158587 -1.74351 -3.86148 -1.626049 -2.713716 -1.727542 -1.726574 2.600193 4.235611 1 120
2.267463 1.001099 3.169747 0.7829307 2.571501 1.623476 -0.2672116 1.967246 1.292771 1.788345 -2.29038 2.14354 -2.14123 2.879207 2.358643 1.61833 1.027408 -2.739512 0.6969931 -0.8051042 0.5362575 -0.5938789 0.4085736 -1.30807 -0.4289242 -0.4832036 0.3608083 -0.5633516 -0.8396364 -1.37906 -0.7812004 -2.529819 -1.730188 -2.241654 -1.662054 -3.560879 -1.559805 -2.494764 -1.686265 -1.780949 2.225683 3.147189 1 124
2.504399 0.9487442 3.22928 0.7508608 2.673381 1.791296 -0.08777961 2.412584 1.167377 2.412302 -2.289808 2.698919 -2.139447 2.711896 2.467131 1.704428 1.181643 -2.638112 1.5672 -1.11136 0.3408547 -0.8516969 0.7482728 -1.424516 0.2435854 -0.6811982 0.0338516 -0.537185 -0.99857 -0.970786 -0.7620874 -1.98963 -1.686554 -2.170705 -1.609746 -3.154269 -1.535695 -2.361936 -1.644426 -1.815612 1.53538 -0.662191 1 128
3.326791 0.9097565 3.331502 0.7320572 2.894777 2.074914 0.2979091 2.883529 1.125494 2.892372 -2.278371 3.213224 -2.132773 2.594375 2.59089 1.947795 1.265995 -2.532086 2.224735 -1.309881 0.1206001 -1.080727 1.14689 -1.658434 0.6297469 -0.9315094 -0.3370115 -0.5173951 -1.254927 -0.7763466 -0.9376957 -1.703908 -1.734274 -2.129654 -1.661286 -2.887551 -1.635971 -2.472828 -1.726294 -1.930275 1.017057 -3.591124 1 132
4.076181 1.084427 3.313421 0.9143099 3.091535 2.511909 0.8851271 3.048966 1.323813 2.848902 -2.001552 3.508306 -1.870308 2.40957 2.618234 2.16157 1.157504 -2.475425 2.207092 -1.240483 -0.2117241 -1.380623 1.260809 -1.951307 0.4828381 -1.054002 -0.7843305 -0.6994267 -1.636328 -0.8757374 -1.310006 -1.920948 -1.954243 -2.335856 -1.882673 -2.915557 -1.906771 -2.828638 -2.021341 -2.223404 0.8999565 -2.323813 1 136
4.436558 1.47789 3.094267 1.316331 3.19224 3.003449 1.563768 2.966469 1.654928 2.415498 -1.381779 3.735686 -1.2713 2.111197 2.55907 2.274148 0.9198431 -2.382151 1.835987 -0.8721803 -0.5900508 -1.740582 1.023064 -2.190049 0.1177224 -1.058395 -1.246247 -1.025879 -2.082595 -1.115055 -1.780112 -2.403986 -2.286472 -2.743341 -2.245598 -3.17384 -2.277827 -3.256107 -2.422187 -2.653363 1.02633 1.474605 1 140
4.311084 1.905859 2.724872 1.767542 3.192927 3.175593 2.074216 2.851075 1.923787 2.1144 -0.6114531 4.01714 -0.5516398 1.790911 2.515906 2.327403 0.7517898 -2.183829 1.774506 -0.4737012 -0.8969747 -2.047984 0.7686499 -2.26731 0.1419169 -1.046532 -1.574125 -1.280257 -2.407718 -1.220743 -2.147316 -2.694543 -2.561089 -3.117946 -2.573386 -3.41599 -2.585714 -3.563949 -2.732439 -3.05926 1.088755 3.79554 1 144
3.979732 2.239058 2.256145 2.138508 3.061133 2.842812 2.248344 2.824906 2.076547 2.19852 0.02871785 4.112448 0.03876846 1.53427 2.500326 2.334343 0.7056875 -1.962117 2.060345 -0.464333 -1.129267 -2.224884 0.7451264 -2.207963 0.7046933 -1.039759 -1.75944 -1.437896 -2.528525 -1.13828 -2.293734 -2.690149 -2.679997 -3.338828 -2.730313 -3.4763 -2.729952 -3.740999 -2.892559 -3.270844 0.9926531 4.113043 1 148
3.987011 2.394817 2.002685 2.32333 2.881542 2.296307 2.161019 2.978332 2.195783 2.566188 0.4107408 3.963814 0.4263634 1.364627 2.500084 2.330419 0.7302074 -1.787705 2.339621 -0.7116414 -1.334731 -2.295777 0.8676501 -2.075135 1.297773 -1.029288 -1.920747 -1.574059 -2.545058 -1.066864 -2.315519 -2.596074 -2.739175 -3.454634 -2.786947 -3.418132 -2.776102 -3.855131 -2.973759 -3.26963 0.7951853 3.712675 1 152
4.059055 2.394162 2.220327 2.320599 2.78373 1.916225 1.911971 3.145655 2.43774 3.041735 0.628751 3.821195 0.6749797 1.282542 2.555756 2.336024 0.8486566 -1.660478 2.515262 -0.6203187 -1.504503 -2.34129 0.989409 -1.899297 1.490902 -0.9870838 -2.075519 -1.652439 -2.546908 -1.081651 -2.319116 -2.487652 -2.79777 -3.501755 -2.828108 -3.352761 -2.81105 -3.868354 -3.008908 -3.178653 0.7667099 2.382186 1 156
3.585847 2.377585 2.573644 2.287402 2.759437 1.908502 1.680933 3.063622 2.870239 3.378474 0.7716528 3.796661 0.8336483 1.246548 2.709201 2.309816 1.038885 -1.594138 2.494108 -0.008859456 -1.623265 -2.456263 0.9762254 -1.764922 1.180409 -0.8638165 -2.199209 -1.665159 -2.569648 -1.141955 -2.339325 -2.43942 -2.802382 -3.495322 -2.876916 -3.374738 -2.858575 -3.784431 -3.022793 -3.131433 1.203565 0.966148 1 160
2.913655 2.373998 2.845809 2.266291 2.810533 2.34833 1.738425 3.01757 3.209353 3.551774 0.7599529 4.006652 0.8335437 1.219566 3.004889 2.291348 1.257496 -1.594061 2.340168 0.5445421 -1.688845 -2.665605 0.8297932 -1.829182 0.6163597 -0.8267115 -2.350338 -1.646768 -2.697656 -1.221146 -2.471609 -2.531286 -2.859122 -3.477981 -2.994389 -3.497392 -2.969503 -3.709171 -3.097791 -3.147274 1.563444 0.9323459 1 164
2.519339 2.338694 3.249948 2.204792 2.958874 3.010078 2.034248 3.346763 3.226501 3.827026 0.6123836 4.354799 0.6847211 1.225791 3.382786 2.395775 1.532436 -1.592232 2.333947 0.6782261 -1.678555 -2.826265 0.7125108 -2.052974 0.2445932 -1.05698 -2.522092 -1.581521 -2.926362 -1.292393 -2.733267 -2.611217 -3.06454 -3.441864 -3.176033 -3.576242 -3.145137 -3.658628 -3.227942 -3.115704 1.278199 1.127448 1 168
2.259306 2.269156 3.780927 2.108685 3.112991 3.429479 2.274135 3.739651 3.176984 4.141754 0.5492858 4.417167 0.5828339 1.258904 3.627615 2.638039 1.803648 -1.509106 2.444599 0.7608629 -1.609139 -2.814523 0.6822624 -2.179276 0.1673663 -1.374519 -2.622059 -1.46884 -3.103165 -1.360588 -2.958649 -2.518039 -3.240798 -3.349894 -3.306884 -3.499963 -3.267742 -3.560293 -3.286192 -2.960689 0.9050448 -0.1403408 1 172
2.248037 2.165849 4.304607 1.978618 3.177606 3.540931 2.420753 3.967325 3.213547 4.178561 0.6232792 4.279953 0.6094932 1.239932 3.608109 2.893962 1.946446 -1.416325 2.616105 0.7414009 -1.543086 -2.752733 0.7458933 -2.195889 0.2972042 -1.554024 -2.63492 -1.292994 -3.18395 -1.353847 -3.039438 -2.250058 -3.263119 -3.217771 -3.312458 -3.301235 -3.278892 -3.353635 -3.24792 -2.746746 0.7745629 -2.633095 1 176
2.611998 2.046979 4.697199 1.831458 3.120274 3.725019 2.583416 4.161201 3.137694 3.944175 0.6508986 4.386828 0.6401821 1.111599 3.405817 2.974035 1.929736 -1.474802 2.917489 0.1622557 -1.525529 -2.8194 0.8852856 -2.287741 0.6121653 -1.606127 -2.63468 -1.04339 -3.243713 -1.142571 -3.040134 -1.88325 -3.244203 -3.07447 -3.246984 -3.019486 -3.245525 -3.011328 -3.219277 -2.562083 0.4437363 -4.654791 1 180
2.900423 1.976277 4.752662 1.7558 2.949635 4.108853 2.740585 4.262386 2.888925 3.640079 0.6340338 4.615965 0.6825519 0.922349 3.169768 2.836441 1.79443 -1.656227 3.136371 -0.591675 -1.563988 -2.994009 1.001952 -2.455328 0.9417611 -1.641283 -2.702836 -0.8208233 -3.325238 -0.7923904 -3.063372 -1.570965 -3.321033 -2.915989 -3.248137 -2.694071 -3.274959 -2.611044 -3.274235 -2.414276 -0.1124844 -4.66692 1 184
3.038498 1.963574 4.438593 1.766502 2.758139 4.458366 2.880887 4.139856 2.585834 3.241338 0.6675754 4.515244 0.7721776 0.7927692 2.983996 2.682213 1.54627 -1.781316 2.951866 -0.890563 -1.630373 -3.136795 1.058706 -2.639575 1.055753 -1.759542 -2.847643 -0.7104304 -3.443189 -0.5353466 -3.179749 -1.482536 -3.507486 -2.722574 -3.378206 -2.419459 -3.411554 -2.298456 -3.402957 -2.272732 -0.476857 -2.370777 1 188
3.418393 1.844257 3.923617 1.675638 2.603196 4.460518 2.975856 3.688661 2.371799 2.554669 0.6613003 3.942506 0.7746987 0.7864789 2.835638 2.64365 1.179521 -1.789644 2.318921 -0.8180104 -1.691788 -3.138403 1.047632 -2.791912 0.9195841 -1.845733 -2.951676 -0.6668727 -3.540697 -0.460739 -3.33883 -1.599431 -3.6543 -2.482848 -3.515754 -2.218278 -3.531726 -2.088878 -3.490476 -2.068167 -0.286281 1.343889 1 192
3.903983 1.5288 3.34131 1.383677 2.377709 3.797793 2.86637 2.902457 2.362479 1.654031 0.6089745 3.097365 0.7151479 0.8649306 2.687092 2.601823 0.8214845 -1.77708 1.490578 -0.5958747 -1.700023 -2.9794 0.9619146 -2.803618 0.6496336 -1.653175 -2.869648 -0.6191932 -3.508689 -0.4529044 -3.347808 -1.72573 -3.609382 -2.225525 -3.503989 -2.027877 -3.489233 -1.866101 -3.429777 -1.775258 0.5109766 4.831649 1 196
4.047557 1.20533 2.733536 1.085998 2.018183 2.595966 2.455071 2.203248 2.441238 0.9645275 0.5705276 2.356326 0.6831149 0.9838782 2.595016 2.425848 0.6508427 -1.850756 0.8367455 -0.2575214 -1.580316 -2.742864 0.8867704 -2.672074 0.3920679 -1.314868 -2.605284 -0.5373277 -3.326908 -0.4155341 -3.130473 -1.733019 -3.390341 -1.991085 -3.323828 -1.832894 -3.296012 -1.580081 -3.241041 -1.501519 1.360119 6.831758 1 200
3.59725 1.093268 2.252781 0.9984574 1.704168 1.658 1.845336 2.054281 2.344429 0.8253103 0.4563224 2.005076 0.5469288 1.149442 2.67993 2.148679 0.7112321 -2.013829 0.6206136 -0.05641057 -1.339359 -2.503285 0.8916621 -2.507638 0.2831375 -1.189993 -2.292891 -0.4251795 -3.064743 -0.3799863 -2.821922 -1.602744 -3.077167 -1.773958 -3.032001 -1.665738 -3.02255 -1.29253 -2.951498 -1.266827 1.586933 6.827019 1 204
2.47952 1.184805 2.033322 1.100878 1.586505 1.497393 1.211658 2.302941 2.067976 1.135601 0.1958077 1.890931 0.2243044 1.325495 2.952505 1.865016 0.8817726 -2.203077 0.6907423 -0.2602159 -1.109994 -2.284432 0.8783576 -2.355678 0.3290741 -1.248596 -2.037992 -0.3553858 -2.767137 -0.416236 -2.541718 -1.432197 -2.716985 -1.580854 -2.684179 -1.569006 -2.697198 -1.105435 -2.589214 -0.9875116 1.26301 5.845375 1 208
1.232596 1.281938 2.022953 1.197173 1.633626 1.747096 0.712492 2.468626 1.846098 1.523942 -0.08811475 1.644451 -0.09430765 1.422331 3.274027 1.643625 1.016928 -2.376043 0.6704426 -0.5317142 -1.032805 -2.131569 0.7306366 -2.192595 0.4284097 -1.205927 -1.923644 -0.4350062 -2.503574 -0.5374439 -2.300126 -1.38248 -2.421801 -1.479939 -2.395808 -1.563268 -2.403274 -1.098613 -2.294437 -0.7604464 0.9635841 5.691932 1 212
0.6523771 1.262167 2.202774 1.166647 1.834043 1.899264 0.53499 2.383416 1.805289 1.783776 -0.1046418 1.337481 -0.101821 1.408283 3.505371 1.533506 1.103587 -2.490697 0.6815214 -0.2446746 -1.113813 -2.099968 0.5519589 -2.023505 0.6670729 -0.952561 -2.02303 -0.6344379 -2.402837 -0.670943 -2.090178 -1.401276 -2.320075 -1.509372 -2.28146 -1.627226 -2.277034 -1.245701 -2.197534 -0.7911793 0.9318266 5.358525 1 216
0.5324936 1.147603 2.484471 1.034033 2.113436 1.823734 0.7052172 2.172913 1.928817 2.066774 0.2547683 1.481243 0.2495803 1.332832 3.603411 1.510455 1.219 -2.527556 1.212137 0.7187455 -1.233134 -2.191705 0.5583339 -1.851103 1.161622 -0.4902104 -2.258066 -0.7857733 -2.447646 -0.6962799 -1.87879 -1.256396 -2.335856 -1.606458 -2.27983 -1.726195 -2.265645 -1.39861 -2.221841 -1.078052 1.083685 2.133828 1 220
0.2308736 0.9794319 2.685755 0.8618827 2.295426 1.788582 0.9555922 2.026822 2.166348 2.50814 0.6145496 2.232242 0.5649575 1.258214 3.610519 1.492744 1.391819 -2.582757 2.129127 1.798398 -1.331725 -2.331997 0.7246547 -1.695589 1.552911 0.09780511 -2.468711 -0.8273987 -2.501903 -0.607172 -1.61072 -0.9329726 -2.280459 -1.658352 -2.246033 -1.783694 -2.183614 -1.426345 -2.177618 -1.396534 1.290789 -3.213973 1 224
0.0387355 0.7384289 2.780872 0.6420553 2.269946 2.147927 1.006459 2.08268 2.411058 2.804235 0.5892181 2.97164 0.5072541 1.160711 3.509953 1.421556 1.486324 -2.805088 2.636137 2.053035 -1.466997 -2.46286 0.7956621 -1.693761 1.474158 0.4970169 -2.615191 -0.8378102 -2.537411 -0.499025 -1.347562 -0.6660276 -2.092151 -1.578004 -2.1266 -1.647604 -1.997078 -1.322806 -2.006301 -1.543769 1.349156 -6.128191 1 228
0.4345571 0.401413 2.783705 0.3318833 1.997885 2.654441 0.7993691 2.282252 2.493513 2.685546 0.3400527 3.111838 0.2728842 0.9952044 3.207086 1.269883 1.357903 -3.137455 2.530614 1.251498 -1.637989 -2.554242 0.7334553 -1.854948 1.256515 0.5820106 -2.690924 -0.8374951 -2.528357 -0.3142805 -1.127076 -0.4189608 -1.756777 -1.330849 -1.859434 -1.185695 -1.709863 -1.088516 -1.72839 -1.442425 1.162945 -5.732762 1 232
1.037796 0.09657014 2.668343 0.0362264 1.586997 2.840019 0.5341319 2.403059 2.395261 2.346105 0.2608314 2.842217 0.2253485 0.8011674 2.761273 1.058014 1.083931 -3.342106 2.418569 0.5793548 -1.765251 -2.590434 0.7040104 -1.920401 1.313736 0.7007861 -2.680416 -0.8038656 -2.413263 0.03603423 -0.8363013 0.05381414 -1.304762 -1.011232 -1.432089 -0.5266562 -1.320811 -0.7410254 -1.379125 -1.198048 0.9562278 -6.473938 1 236
1.412807 0.01529054 2.496518 -0.04918944 1.297769 2.935955 0.4810609 2.400762 2.30048 2.07596 0.4233624 2.67254 0.4042085 0.5814413 2.362149 0.8152745 0.8266083 -3.394937 2.553105 0.9340279 -1.872147 -2.689841 0.7018194 -1.807158 1.491679 1.000366 -2.720782 -0.8046131 -2.327907 0.3884844 -0.5246308 0.5653553 -0.9368107 -0.8505803 -1.055704 -0.03537911 -1.01239 -0.4781478 -1.109635 -1.097377 0.8201506 -9.189936 1 240
1.621793 0.08477144 2.31775 0.02557343 1.245413 3.134852 0.6221575 2.437906 2.235804 2.024215 0.6535478 2.872022 0.6431636 0.3340248 2.154278 0.5646959 0.699014 -3.432352 2.739387 1.623959 -1.993802 -2.897789 0.6814662 -1.707948 1.478229 1.252979 -2.890392 -0.866465 -2.410904 0.5415543 -0.339933 0.8090354 -0.7534277 -0.8873711 -0.8622992 0.1669559 -0.8786526 -0.4203992 -0.9751639 -1.195329 0.5211141 -10.97348 1 244
1.577995 -0.07607955 2.129347 -0.1219144 1.231764 3.003403 0.7068698 2.428253 2.12434 2.128962 0.7960085 3.374636 0.7912367 0.180703 2.133846 0.3478048 0.7302253 -3.443496 2.958595 1.747082 -2.03352 -3.019194 0.7358177 -1.661099 1.297098 1.413105 -2.983893 -0.8735206 -2.491967 0.5768597 -0.2026848 0.9562708 -0.5850773 -0.8547106 -0.7113299 0.3465241 -0.7155687 -0.353196 -0.8061416 -1.162135 0.2419751 -11.86311 1 248
1.104254 -0.5389866 2.073622 -0.5908614 1.04399 2.575051 0.5789645 2.287155 2.106419 2.15022 0.7030802 3.818004 0.704357 0.1627225 2.131748 0.1487373 0.8276884 -3.39956 3.248441 1.312178 -1.971476 -2.959516 0.8909593 -1.541596 1.226372 1.583073 -2.884793 -0.7712818 -2.36976 0.7060196 0.03031501 1.294804 -0.2760128 -0.6311836 -0.4562939 0.6899055 -0.3901072 -0.07328467 -0.4984293 -0.8281124 0.3485746 -13.56541 1 252
0.1799561 -0.91196 2.246315 -1.002836 0.6648576 2.280592 0.1710062 2.19662 2.325419 1.957148 0.3969944 3.749618 0.3966967 0.1087154 2.00733 -0.1435719 0.9081882 -3.397045 3.433772 0.7721382 -1.900241 -2.869345 1.09406 -1.335317 1.475594 1.738288 -2.74736 -0.6480488 -2.107126 0.9677656 0.3627023 1.758516 0.1472311 -0.3745979 -0.09305236 1.081487 0.001706113 0.356691 -0.1196566 -0.3873496 0.6304465 -15.37232 1 256
-1.229916 -1.018538 2.503935 -1.165436 0.1970996 2.136317 -0.4686712 2.250068 2.670061 1.700717 0.1065275 3.156811 0.08175137 -0.09806676 1.814116 -0.5774165 0.9843844 -3.527568 3.418256 0.5129448 -1.842206 -2.911684 1.355421 -1.145285 2.08919 1.741198 -2.695087 -0.593758 -1.918468 1.242872 0.6348078 2.079237 0.4860884 -0.2266039 0.2172316 1.320523 0.3027541 0.7635587 0.1924014 -0.06800396 0.6806054 -15.15226 1 260
-2.687997 -0.9000746 2.713964 -1.085166 -0.09794185 2.12784 -1.046817 2.561166 2.872576 1.761943 -0.08080025 2.64539 -0.1256776 -0.3602265 1.777293 -0.9823391 1.128211 -3.725717 3.504061 0.6602431 -1.810178 -3.080398 1.653023 -1.053474 2.92312 1.519584 -2.756129 -0.612509 -1.920254 1.421777 0.6661298 2.180499 0.5581611 -0.2029751 0.3124154 1.321318 0.3987642 0.9724554 0.3130277 0.03688895 0.2451419 -13.7464 1 264
-3.434587 -0.6150786 2.764488 -0.7949621 -0.07493932 2.215209 -1.369173 3.112498 2.816658 2.380575 -0.2690012 2.715315 -0.3110774 -0.5383974 2.020943 -1.173441 1.367663 -3.838315 3.95508 0.854768 -1.832969 -3.220792 1.899011 -1.062126 3.638742 1.218021 -2.904976 -0.6288278 -2.001744 1.476414 0.5076776 2.222117 0.477673 -0.2019783 0.2938822 1.203214 0.3620268 0.9550297 0.279161 0.04239321 -0.5703583 -13.93584 1 268
-3.051469 -0.4380054 2.669558 -0.5899255 0.1244168 2.269032 -1.421759 3.527461 2.634079 3.276481 -0.514071 3.173892 -0.556376 -0.5490748 2.3982 -1.134381 1.597345 -3.832389 4.422862 0.5926561 -1.853844 -3.239103 2.004594 -1.174891 3.795106 0.9792194 -3.04795 -0.6078224 -2.051386 1.388332 0.2965925 2.230167 0.4433309 -0.1499216 0.311181 1.084567 0.335627 0.8616332 0.2266869 0.1512246 -1.220085 -15.36172 1 272
-1.594905 -0.5355883 2.692004 -0.6767924 0.4242584 2.463669 -1.017383 3.61921 2.382571 3.875698 -0.6425091 3.501875 -0.7059948 -0.3814687 2.726035 -0.8815717 1.716823 -3.750135 4.335041 0.04015082 -1.827431 -3.202766 1.856007 -1.36542 3.110035 0.7429591 -3.169389 -0.6481958 -2.138819 1.111651 0.07178894 2.028919 0.4029081 -0.1421732 0.2915083 0.8627805 0.2688152 0.7870843 0.173013 0.3211716 -1.443623 -15.68181 1 276
0.03810243 -0.673973 2.85824 -0.8227766 0.7556295 2.864817 -0.185021 3.506077 2.003272 3.884161 -0.4092513 3.583677 -0.5159978 -0.1756208 2.930794 -0.4989313 1.724307 -3.555306 3.753976 -0.1114617 -1.821138 -3.177138 1.438732 -1.461597 1.909676 0.4796648 -3.308123 -0.8404047 -2.288503 0.6931851 -0.07527199 1.631207 0.2804222 -0.2597797 0.1949055 0.4610978 0.1345044 0.7439973 0.1068376 0.3712497 -1.512337 -14.65588 1 280
0.7275398 -0.6156403 2.831478 -0.7607372 0.8903606 3.144441 0.5129163 3.292009 1.530098 3.580993 0.02259727 3.61694 -0.1294925 -0.07117406 3.014631 -0.2031191 1.683669 -3.238278 3.284783 0.314379 -1.839786 -3.09779 1.010101 -1.358192 0.9732656 0.3425879 -3.371541 -1.073741 -2.365339 0.3096218 -0.04099451 1.32627 0.2308672 -0.3781789 0.1987335 0.04164046 0.1324619 0.7748981 0.1599999 0.385955 -1.657119 -14.13218 1 284
0.1908567 -0.4689538 2.448133 -0.5841699 0.7178461 2.890646 0.6474668 2.976076 1.099383 3.355988 0.2610516 3.474746 0.09100065 0.01308133 3.021123 -0.09007125 1.70635 -2.889463 3.18581 0.8154311 -1.735535 -2.827716 0.884149 -1.161744 0.7013754 0.4335327 -3.1963 -1.118359 -2.214244 0.1014167 0.1365883 1.331326 0.4453419 -0.2761472 0.4523325 -0.1685819 0.4084988 0.9304736 0.4682695 0.6503688 -1.675293 -15.43211 1 288
-1.094991 -0.3951482 1.958147 -0.4756198 0.3998338 1.981737 0.2978483 2.454899 0.8782052 2.991393 0.2374496 2.871444 0.07879192 0.2187009 2.95845 -0.03291182 1.766826 -2.556775 3.075021 1.060442 -1.44905 -2.310349 0.9828367 -0.9280498 0.7464836 0.6671085 -2.754537 -0.9227591 -1.782217 -0.01505198 0.3665116 1.522569 0.8993921 0.05141288 0.8813238 -0.1661345 0.8548281 1.190433 0.9507666 1.22455 -1.117101 -17.56679 1 292
-2.111989 -0.3343974 1.66972 -0.4001844 0.141059 0.9470776 -0.2813991 1.797391 0.8397844 2.224386 0.03804046 1.907162 -0.07888048 0.5250826 2.824691 0.0454954 1.752948 -2.260921 2.538407 1.114372 -1.085222 -1.687197 0.9445416 -0.6413637 0.5536072 0.8644029 -2.223577 -0.6835726 -1.2316 -0.2349382 0.5841415 1.558461 1.336858 0.3629535 1.259768 -0.1858865 1.240935 1.431904 1.35801 1.812635 -0.08073273 -18.15201 1 296
-2.248613 -0.2892682 1.653535 -0.3602361 -0.03751729 0.4996508 -0.8132969 1.283332 0.7793974 1.457362 -0.2234192 0.9897429 -0.2750765 0.8343965 2.682575 0.09285393 1.728363 -2.078539 1.713669 1.007949 -0.7498283 -1.209818 0.696784 -0.4463155 0.1181552 0.8178397 -1.840403 -0.5856404 -0.8439871 -0.5613288 0.6892828 1.266601 1.498241 0.4996555 1.392513 -0.407429 1.402638 1.514185 1.514811 2.081205 0.7810587 -16.02511 1 300
-2.201529 -0.3246565 1.870484 -0.414815 -0.1597264 0.694902 -1.063865 1.058964 0.6542597 1.121012 -0.3769546 0.402182 -0.3670456 1.13691 2.670718 0.1636775 1.813474 -2.029342 1.111076 0.7071877 -0.4784118 -0.9714208 0.4853421 -0.4884538 -0.1055439 0.4684567 -1.664626 -0.5869141 -0.7087561 -0.823258 0.6137931 0.8568245 1.39142 0.507065 1.296736 -0.7630961 1.342161 1.445665 1.468284 2.045415 1.203161 -13.00086 1 304
-2.848861 -0.3907698 2.145257 -0.4953956 -0.185873 0.9745312 -1.096707 1.015846 0.5219683 1.278778 -0.4649387 0.06860102 -0.4130905 1.466891 2.87553 0.3788608 2.01163 -2.032295 0.9598837 0.308953 -0.235596 -0.8144895 0.4815285 -0.6687933 0.03013036 0.02393759 -1.550118 -0.4937902 -0.6762143 -0.9118251 0.452626 0.6596872 1.22939 0.5434819 1.158801 -1.00077 1.212229 1.413245 1.382907 2.011757 1.40089 -11.72783 1 308
-4.184319 -0.4301048 2.264936 -0.5257194 -0.1136242 1.038846 -1.074476 0.954886 0.374842 1.6713 -0.5902824 -0.08956716 -0.5161285 1.790142 3.158873 0.7137899 2.219021 -2.009248 1.119071 -0.0378172 0.02205576 -0.5998178 0.6477982 -0.8330715 0.2768067 -0.2728329 -1.361173 -0.2190469 -0.6143895 -0.8634863 0.3185567 0.7490293 1.145833 0.7138833 1.090467 -0.9696637 1.144313 1.515324 1.336542 2.115944 1.587267 -12.66478 1 312
-5.494414 -0.3595675 2.3446 -0.4460948 0.06316302 1.25612 -0.9197382 0.9416075 0.2161435 1.865837 -0.7651003 0.1408595 -0.668484 2.091946 3.350069 1.069115 2.33357 -1.954165 1.476262 -0.5037785 0.3090346 -0.3795333 0.8371692 -1.021408 0.4574068 -0.3994077 -1.124402 0.1151985 -0.5743765 -0.7797949 0.1642367 0.9620519 1.08821 0.9209476 1.049484 -0.7950949 1.085068 1.633428 1.279113 2.18032 1.730519 -14.77611 1 316
-5.719685 -0.1722473 2.514268 -0.2630942 0.3930728 1.915178 -0.5561574 1.211032 0.03679294 1.920953 -1.042621 0.7487075 -0.9291715 2.393919 3.482414 1.386637 2.405041 -1.935513 1.891263 -1.413778 0.5906798 -0.2703573 0.9808476 -1.386523 0.5301586 -0.5430243 -1.00965 0.3413872 -0.7087719 -0.7212679 -0.1242809 1.075744 0.9216968 0.9899969 0.9014965 -0.69096 0.8902698 1.63537 1.125267 2.016133 1.596168 -16.40741 1 320
-4.501361 0.01702387 2.572594 -0.06172912 0.826331 2.739319 -0.150959 1.621613 -0.1744063 2.169268 -1.344151 1.304769 -1.260234 2.637349 3.637798 1.633658 2.502511 -2.017729 2.114275 -2.550768 0.7771704 -0.3351818 1.138305 -1.948207 0.4965311 -0.8435402 -1.156392 0.4306709 -1.059652 -0.6974711 -0.5634634 0.9666176 0.6039039 0.9064059 0.5787529 -0.6951676 0.5307336 1.514672 0.8484022 1.634467 1.178217 -16.02108 1 324
-2.792886 0.2093434 2.302637 0.1702155 1.145956 3.375583 0.07061142 1.731448 -0.3988433 2.34327 -1.492553 1.341022 -1.479358 2.771832 3.76456 1.779554 2.531835 -2.143538 1.935552 -3.3422 0.8409317 -0.4711978 1.33366 -2.529547 0.3955375 -1.18729 -1.449906 0.4646632 -1.448488 -0.6850203 -1.029926 0.7071086 0.2522982 0.8552158 0.2218031 -0.6486382 0.1255457 1.329131 0.5175962 1.239781 0.8447426 -13.50209 1 328
-1.934278 0.4485372 1.73635 0.4556299 1.174412 3.53359 0.03593837 1.377298 -0.5869533 1.958029 -1.438792 0.8181695 -1.494511 2.859227 3.705192 1.823747 2.418431 -2.151055 1.464425 -3.382037 0.8613697 -0.4452394 1.511734 -2.899041 0.3277947 -1.292944 -1.60407 0.5166485 -1.610566 -0.5985174 -1.305252 0.5236764 0.04970217 0.9850216 0.03444584 -0.4400089 -0.1314595 1.161874 0.2851036 1.054595 0.9750447 -10.78127 1 332
-2.767844 0.6637343 1.110896 0.7007246 0.9303245 2.886275 -0.2187722 0.8085487 -0.5977005 1.135419 -1.197452 0.3323098 -1.307364 2.96793 3.405306 1.807437 2.267486 -1.934662 1.247757 -2.434961 0.9349684 -0.1699567 1.641876 -2.861151 0.4105259 -0.9485286 -1.471881 0.6388608 -1.414367 -0.3529211 -1.173616 0.6831169 0.1367151 1.245196 0.1270566 -0.1321246 -0.06938792 1.158466 0.2951699 1.084401 1.664629 -11.23244 1 336
-4.881002 0.747425 0.6732043 0.787178 0.5545152 1.672797 -0.5973078 0.3419148 -0.3943833 0.4086848 -0.836622 0.2458561 -0.9969469 3.086181 3.014972 1.774878 2.183111 -1.543207 1.495439 -0.8401161 1.082831 0.2173331 1.762453 -2.432732 0.5728403 -0.295043 -1.177672 0.8265564 -0.9802569 -0.006040931 -0.6945139 1.147177 0.4597624 1.499821 0.4333137 0.1603746 0.259223 1.329202 0.51098 1.113249 2.609675 -15.29502 1 340
-6.759747 0.6104808 0.4999932 0.6314992 0.2258799 0.542022 -0.9694093 -0.03454611 -0.1013712 -0.003697959 -0.4569507 0.2817504 -0.6618891 3.164207 2.667971 1.774742 2.105511 -1.146815 1.782515 0.437225 1.214883 0.537344 1.924267 -1.9497 0.7289224 0.2273485 -0.9782219 0.9540613 -0.5994988 0.2756259 -0.2633993 1.478047 0.7655029 1.619407 0.6996115 0.302779 0.5857623 1.388087 0.7163584 0.9504784 3.502323 -18.6694 1 344
-7.542434 0.3184843 0.4311823 0.3224216 0.029671 -0.3203458 -1.336771 -0.5491593 0.2313903 -0.2584952 -0.174929 0.2681034 -0.3961724 3.212881 2.406055 1.811973 1.968481 -0.9075213 1.841393 0.8642662 1.24745 0.7492824 2.102416 -1.656583 0.9383507 0.4116299 -0.9593834 0.9161276 -0.3845005 0.3920429 -0.09980536 1.389378 0.9235556 1.550184 0.7883393 0.1870856 0.7598333 1.104675 0.7758303 0.6343632 4.402458 -18.39315 1 348
-7.691981 0.07441162 0.3356536 0.08417785 -0.0891658 -0.9204147 -1.773444 -1.063093 0.5255008 -0.2990515 -0.1984331 0.2361367 -0.3841802 3.311675 2.261041 1.830283 1.897817 -0.8380768 1.780615 0.6237692 1.251366 0.9321375 2.269935 -1.473557 1.129582 0.4216906 -0.9889116 0.8212095 -0.1759354 0.4028697 -0.03785415 1.074264 1.025642 1.386044 0.8271715 -0.06895956 0.8645025 0.6155846 0.7709548 0.3392361 5.198032 -16.28817 1 352
-7.913713 0.01404048 0.3719218 0.03222679 -0.1354851 -1.04242 -2.187574 -1.17694 0.6645195 -0.04487666 -0.5582769 0.1578098 -0.6799164 3.425302 2.204037 1.818912 1.983443 -0.8207873 1.743879 -0.01311312 1.297659 1.073812 2.498915 -1.331937 1.280707 0.4022361 -1.011244 0.8199421 0.04650792 0.4363628 0.03945936 0.8027999 1.108457 1.206773 0.8960344 -0.2912476 0.955937 0.1656947 0.784173 0.07550896 5.472469 -14.57193 1 356
-8.525939 0.2353756 0.5933933 0.2348551 -0.02560752 -0.6610481 -2.434509 -0.8311613 0.6507583 0.2180383 -0.9152356 0.09376157 -1.002067 3.398925 2.182055 1.772717 2.040428 -0.765972 1.84425 -0.7866859 1.280192 1.07844 2.804431 -1.261124 1.654939 0.3699415 -1.102762 0.8502951 0.113093 0.549446 0.09744182 0.6315331 1.090896 0.9560674 0.9004831 -0.47384 0.9507284 -0.1601996 0.7607061 -0.3172822 5.068303 -13.15804 1 360
-9.715231 0.677121 0.7756605 0.641134 0.1660051 -0.1154902 -2.49978 -0.4144962 0.5419342 0.3227647 -0.8883607 0.1314966 -0.9635974 3.203412 2.157218 1.650726 1.901378 -0.6766336 2.082727 -1.291444 1.116567 0.9686234 3.028898 -1.192197 2.269428 0.3708265 -1.25064 0.7826278 0.04832027 0.6894619 0.2005645 0.5380271 0.9926338 0.6273931 0.8314387 -0.6425784 0.8559248 -0.3847481 0.6755773 -0.8010197 4.345537 -11.7573 1 364
-11.25059 1.016288 0.8658351 0.9520672 0.3068099 0.3314407 -2.385276 -0.3110529 0.4569848 0.4651559 -0.4746669 0.2564608 -0.5111185 2.952204 2.120291 1.519448 1.657397 -0.5556507 2.315968 -1.19678 0.8706269 0.86413 3.051681 -1.011847 2.682606 0.4341314 -1.378457 0.6276624 0.03104594 0.7191603 0.3925383 0.4758019 0.943625 0.340855 0.7827013 -0.8194464 0.7996455 -0.5802937 0.5887579 -1.132656 3.91879 -11.13229 1 368
-11.94561 1.053677 1.020732 0.9813414 0.5089704 0.880221 -2.056169 -0.3587433 0.4375589 0.8434556 -0.139714 0.4657021 -0.1256262 2.724439 2.132149 1.500773 1.443828 -0.4232815 2.44648 -0.7244462 0.5855966 0.8037932 2.9096 -0.7411947 2.581084 0.4911809 -1.544811 0.4472006 0.0834405 0.5543534 0.5617856 0.3936467 0.966227 0.1657293 0.7585901 -1.005465 0.8049572 -0.7927484 0.5349813 -1.241323 3.800345 -11.78273 1 372
-10.69684 0.950604 1.231396 0.8920477 0.8501013 1.844625 -1.532221 -0.1383954 0.3134788 1.34556 -0.2751463 0.7598544 -0.2233498 2.471647 2.1883 1.541399 1.242682 -0.4144754 2.42551 -0.5696861 0.2303438 0.6790053 2.650458 -0.5642649 2.108561 0.4849988 -1.850709 0.2152992 0.0670846 0.2853184 0.6182429 0.2566537 0.9500828 0.01373109 0.7190239 -1.152122 0.792341 -0.9743936 0.4889261 -1.276715 3.30835 -12.25731 1 376
-8.107929 0.9296513 1.232376 0.9011103 1.127467 2.926056 -0.9817803 0.3090746 0.0161883 1.772951 -0.6795126 0.9303513 -0.5907252 2.125461 2.185941 1.482671 1.010327 -0.5853907 2.194372 -1.05245 -0.1781946 0.3962469 2.319678 -0.6244051 1.652539 0.4191228 -2.227086 -0.08407168 -0.1185405 0.1155883 0.5683561 0.08239274 0.8630966 -0.2116434 0.676677 -1.202626 0.7397413 -1.038432 0.4333396 -1.337594 2.254261 -10.64459 1 380
-5.850815 0.9492524 0.9036499 0.9572106 1.171503 3.426954 -0.6949547 0.5565813 -0.2687127 2.061614 -0.9472399 0.5626468 -0.838661 1.794983 2.103088 1.343017 0.7809967 -0.769048 1.739053 -1.562675 -0.5195424 0.08176329 1.988144 -0.7891283 1.454272 0.3612073 -2.491333 -0.3539693 -0.3691231 0.1563206 0.4990933 -0.001976577 0.8473987 -0.4061224 0.7084144 -1.110882 0.7439029 -0.928901 0.4545151 -1.311514 1.371811 -7.802819 1 384
-5.127333 0.87635 0.5155762 0.9122255 1.035511 3.09743 -0.801161 0.3204609 -0.3942508 2.126597 -0.9041767 -0.315301 -0.7978556 1.664557 2.039548 1.31753 0.558603 -0.7900082 1.238497 -1.213959 -0.6768118 -0.01192884 1.699215 -0.7633458 1.407054 0.424354 -2.514887 -0.4847526 -0.4436498 0.3208035 0.5290104 0.1537671 1.026768 -0.3755876 0.8928969 -0.8900675 0.9074268 -0.6453159 0.6609427 -1.012263 1.347891 -6.910406 1 388
-6.118399 0.7869747 0.3919183 0.8274097 0.8945396 2.399812 -1.138438 -0.3252093 -0.4071855 2.027699 -0.5899257 -1.020811 -0.4827511 1.768647 2.102738 1.504163 0.3525654 -0.6182089 1.034753 -0.03710252 -0.6387797 0.1958191 1.50101 -0.4640052 1.272833 0.6080978 -2.313623 -0.4419379 -0.2707736 0.4554503 0.6618705 0.5653538 1.341863 -0.1211433 1.196883 -0.6154352 1.192631 -0.2566539 0.9978752 -0.4470571 2.088563 -9.862088 1 392
-7.840802 0.7796817 0.5677204 0.7949577 0.8453807 1.916559 -1.496103 -1.061352 -0.4247642 1.896873 -0.3141747 -1.038637 -0.2041085 2.00889 2.278926 1.761276 0.254555 -0.3685646 1.269473 0.9452032 -0.4550329 0.5211248 1.479976 -0.1165084 1.064223 0.7935356 -1.998931 -0.2491565 -0.002529686 0.5383896 0.8219322 1.069929 1.64071 0.1591972 1.499942 -0.3812236 1.483438 0.1361225 1.297464 0.1470035 2.999833 -15.02047 1 396
-9.268067 0.7402003 0.7232192 0.7190348 0.8033692 1.476749 -1.80581 -1.570481 -0.5441135 1.697198 -0.3493206 -0.4909223 -0.2546485 2.289319 2.473283 1.892774 0.3269581 -0.1816434 1.848174 0.9081299 -0.178543 0.7640917 1.739048 0.06956287 1.152836 0.8992404 -1.634205 0.05344742 0.2263202 0.7471954 0.9943758 1.540763 1.841436 0.3589879 1.71786 -0.195676 1.7225 0.5045189 1.496456 0.5603785 3.582207 -19.39618 1 400
-9.951315 0.608677 0.5950531 0.5739353 0.7606331 0.7526419 -1.99275 -1.774459 -0.7544485 1.455753 -0.5025257 0.002449231 -0.4406653 2.56051 2.653046 1.936451 0.4769384 -0.0827796 2.449814 0.1870356 0.04617441 0.8749384 2.155978 0.1057272 1.669737 0.9348862 -1.339175 0.3083381 0.3293094 1.058629 1.144963 1.867319 1.937873 0.4709258 1.82347 -0.07894628 1.865441 0.7497736 1.619413 0.7102089 3.783774 -21.55283 1 404
-9.460952 0.5406376 0.4538749 0.5126664 0.8787388 0.2781942 -1.889766 -1.864449 -0.8723465 1.220379 -0.4937936 -0.01790738 -0.4517273 2.754158 2.792777 2.106469 0.4806583 -0.04843955 2.59328 -0.2752588 0.04626197 0.8702624 2.360317 0.07602609 2.064983 0.9351214 -1.314336 0.265105 0.2428498 1.074316 1.151906 1.807733 1.895766 0.3806159 1.790403 -0.1888203 1.834661 0.6302915 1.61954 0.6020574 3.906693 -21.28901 1 408
-8.440916 0.6451014 0.7331426 0.6007262 1.207978 0.6109005 -1.539412 -1.907944 -0.7870975 0.9630845 -0.4132751 -0.2458982 -0.3652526 2.852679 2.843366 2.454336 0.280813 -0.05392118 2.334387 -0.2500608 -0.1113463 0.8160098 2.280046 -0.01821429 2.00089 0.9276629 -1.511842 -0.03679639 0.03703367 0.7307823 0.9661931 1.423514 1.709285 0.09128401 1.63232 -0.4989919 1.659796 0.1765371 1.479338 0.4037541 4.096968 -19.77704 1 412
-8.41899 0.8886133 1.322361 0.7919624 1.612095 1.414268 -1.213985 -1.730001 -0.6212921 0.8383574 -0.48434 -0.3355751 -0.4254111 2.927559 2.850921 2.796116 0.1276928 -0.08802188 2.204678 -0.2688029 -0.1965784 0.7690699 2.239895 -0.2182525 1.954856 1.003353 -1.685802 -0.2530238 -0.1672959 0.5308676 0.7111943 1.155746 1.479004 -0.1647 1.430743 -0.7288095 1.467226 -0.2402016 1.276237 0.2406239 4.197335 -18.98961 1 416
-9.139656 1.181024 1.683595 1.043407 1.934501 1.977921 -1.007595 -1.356036 -0.5047429 0.9623614 -0.7201834 -0.4858918 -0.6495652 2.956041 2.893358 2.970033 0.2106458 -0.2333064 2.262856 -0.6863026 -0.1519627 0.6779588 2.438745 -0.5347522 2.260025 1.211363 -1.76375 -0.2484227 -0.3664986 0.7600561 0.5158095 1.122204 1.257601 -0.2943973 1.206043 -0.7620494 1.264712 -0.4306203 1.012558 -0.0171452 4.098224 -18.54819 1 420
-8.978872 1.46633 1.618333 1.336272 2.134815 2.153631 -0.803322 -1.014518 -0.4751514 1.073737 -0.8988594 -0.8062826 -0.8169842 2.842331 2.92513 3.00793 0.3990383 -0.504768 2.092397 -1.329951 -0.1391368 0.5170283 2.690012 -0.9256975 2.501508 1.34987 -1.856599 -0.2561399 -0.6143178 1.086244 0.3476146 0.9770671 0.9883838 -0.4475589 0.9048446 -0.7668619 0.9774924 -0.5934584 0.6602641 -0.4737832 3.807533 -16.15549 1 424
-7.769169 1.76543 1.442979 1.669233 2.279031 2.403384 -0.5523284 -0.7879838 -0.5754282 1.044954 -0.868906 -0.9888029 -0.8109303 2.647987 2.932347 3.073467 0.5117454 -0.6997766 1.658796 -1.838771 -0.2364468 0.40302 2.703516 -1.263214 2.263644 1.178677 -2.00497 -0.4278847 -0.8386128 1.130866 0.1589078 0.5978196 0.6939837 -0.7032484 0.5867145 -0.8730821 0.6680426 -0.9111733 0.3205804 -0.9351701 3.361735 -12.41093 1 428
-6.585228 2.055661 1.44678 1.98629 2.411691 2.843747 -0.3265126 -0.6614059 -0.7786844 1.153377 -0.6937552 -0.7342714 -0.6813192 2.543783 3.024924 3.274103 0.5551951 -0.6724336 1.457284 -1.996896 -0.3189049 0.4285348 2.456787 -1.41151 1.769558 0.815232 -2.118788 -0.6138844 -0.9165297 0.966197 0.005568244 0.3216355 0.4465104 -0.9351105 0.3700731 -0.9661943 0.4400506 -1.251604 0.08794183 -1.141481 2.903341 -10.95968 1 432
-6.094636 2.245741 1.585968 2.196634 2.468646 3.039481 -0.1898716 -0.6767886 -0.8777753 1.548565 -0.3622459 -0.168649 -0.3465746 2.543265 3.165399 3.511327 0.6277993 -0.5220886 1.729554 -1.759714 -0.3085622 0.5096056 2.155087 -1.3535 1.4569 0.5372149 -2.149488 -0.6613206 -0.8992039 0.858432 -0.08870649 0.3775167 0.2600862 -1.039881 0.2514254 -0.923398 0.2743156 -1.420773 -0.06624001 -1.108901 2.693053 -13.01771 1 436
-6.354013 2.292932 1.611914 2.274877 2.38103 2.816978 -0.0947643 -0.8496229 -0.7543676 2.094128 0.1279684 0.234947 0.2042519 2.534593 3.201097 3.602504 0.8171243 -0.3906935 2.162956 -1.226706 -0.2423543 0.5187995 2.000004 -1.182831 1.444285 0.4209025 -2.132862 -0.5824599 -0.9020517 0.9184465 -0.138184 0.6124797 0.1686363 -1.050927 0.1721769 -0.8208817 0.1455862 -1.415621 -0.1732622 -1.069273 2.866639 -16.2443 1 440
-6.762077 2.25046 1.325303 2.285569 2.204492 2.43484 0.0108814 -1.191208 -0.6036823 2.471138 0.5647588 0.1755268 0.7074965 2.480035 3.110373 3.528582 1.069889 -0.3254625 2.397202 -0.5901766 -0.1480057 0.4372609 2.032247 -1.046128 1.698039 0.3506148 -2.115084 -0.4768314 -0.9563245 1.1101 -0.1903177 0.7906798 0.1000736 -1.031942 0.04042872 -0.725216 0.01971344 -1.350206 -0.2840624 -1.181336 3.257437 -17.87498 1 444
-6.585 2.252245 0.9249858 2.340455 2.079106 2.160218 0.06906611 -1.581078 -0.5763463 2.441412 0.7943432 -0.1349206 0.9743484 2.431585 3.007871 3.446479 1.235638 -0.3156492 2.439273 -0.06643094 -0.02081608 0.3356014 2.156791 -1.052235 2.162349 0.1612432 -2.130163 -0.4059601 -1.073273 1.343096 -0.3692008 0.8465629 -0.117008 -1.023307 -0.2340537 -0.6026796 -0.208915 -1.349194 -0.5049105 -1.382726 3.598721 -17.46755 1 448
-5.89856 2.384988 0.948827 2.473977 2.134336 2.099238 0.09047487 -1.589063 -0.535597 2.230984 0.9205371 -0.3004951 1.110085 2.453165 3.017615 3.461523 1.311065 -0.3418435 2.477991 0.1904344 0.1106489 0.2722122 2.249805 -1.169252 2.591141 -0.1051662 -2.191775 -0.382094 -1.251839 1.449927 -0.6910756 0.7757601 -0.5192198 -1.101851 -0.6247295 -0.5573288 -0.5913172 -1.519707 -0.8717712 -1.586849 3.678271 -16.60368 1 452
-5.165353 2.593267 1.465947 2.627872 2.315912 2.232813 0.1634614 -1.018192 -0.3398365 2.152216 1.04445 -0.2020376 1.21826 2.527182 3.095967 3.481025 1.387713 -0.4110225 2.437695 0.07697552 0.1873111 0.221061 2.208177 -1.281086 2.634371 -0.2806602 -2.242771 -0.4284355 -1.450076 1.282388 -1.018722 0.4834668 -1.026452 -1.337791 -1.06471 -0.7272094 -1.065434 -1.845356 -1.318941 -1.854794 3.411036 -15.16975 1 456
-4.819378 2.739123 1.916263 2.72094 2.398278 2.463255 0.2297221 -0.292945 0.03115521 2.167584 1.043018 0.05338931 1.163251 2.534176 3.107996 3.34327 1.475752 -0.5404044 2.164102 -0.2906154 0.2312838 0.1362543 2.070117 -1.285726 2.242141 -0.3389213 -2.181534 -0.5021339 -1.600482 0.9509941 -1.233567 -0.01081319 -1.483885 -1.619749 -1.482296 -1.006023 -1.491484 -2.1614 -1.733992 -2.234296 3.054291 -11.92667 1 460
-5.088017 2.724248 2.013248 2.681558 2.355234 2.691271 0.1753387 0.1218485 0.4810759 2.095949 0.9115409 0.3287801 0.9556146 2.345977 3.040831 2.998104 1.491444 -0.7515104 1.842853 -0.461291 0.2477737 -0.009081039 1.971691 -1.172015 1.907619 -0.3074272 -2.088337 -0.5409022 -1.692664 0.7207839 -1.302393 -0.4845313 -1.769789 -1.801401 -1.807338 -1.194612 -1.767529 -2.396741 -2.047142 -2.679246 2.856431 -7.597262 1 464
-5.3113 2.687795 1.890919 2.640387 2.405005 2.900952 0.03202278 0.2914185 0.708932 1.96866 0.850906 0.4967589 0.8271922 2.00493 2.991745 2.537618 1.417998 -1.031155 1.704099 -0.3565435 0.1820149 -0.2112745 1.961982 -1.076011 2.029638 -0.2529074 -2.134419 -0.5551725 -1.798724 0.6629935 -1.291568 -0.7981503 -1.956755 -1.911867 -2.055749 -1.232984 -1.958428 -2.637532 -2.301287 -3.106785 2.542919 -3.758173 1 468
-4.743432 2.73416 1.681733 2.693118 2.562491 3.050909 -0.1243806 0.5307316 0.5137604 2.08646 0.8343431 0.5352793 0.757409 1.73316 3.055107 2.087566 1.431262 -1.298668 1.678354 -0.3849578 0.1301834 -0.3699971 2.044295 -1.094453 2.277037 -0.3186644 -2.239037 -0.5092173 -1.931519 0.672927 -1.309273 -0.9919661 -2.140428 -1.964769 -2.238518 -1.179847 -2.137214 -2.862649 -2.538472 -3.40295 1.832436 -1.14235 1 472
-3.590312 2.667319 1.592931 2.624288 2.605529 3.045878 -0.2937263 0.9413856 0.04627087 2.506588 0.642695 0.6699889 0.5267149 1.640705 3.184238 1.700195 1.689859 -1.501993 1.768583 -0.7381371 0.2638723 -0.3953289 2.280754 -1.150177 2.277497 -0.5302246 -2.21156 -0.3001337 -1.983615 0.7558786 -1.346946 -1.022601 -2.250004 -1.847523 -2.260219 -1.070282 -2.210129 -2.883145 -2.671723 -3.45891 0.8720513 -0.5864864 1 476
-2.489657 2.411753 1.680389 2.355639 2.444013 2.820296 -0.5403786 1.314211 -0.3307881 2.842188 0.2420881 1.115221 0.1067206 1.629171 3.215145 1.358567 2.091637 -1.659401 2.183406 -1.146348 0.5695503 -0.3542277 2.673975 -1.122096 2.235101 -0.6463704 -2.021385 0.08171742 -1.878839 1.016451 -1.275006 -0.7219546 -2.155921 -1.521025 -2.066228 -0.8381027 -2.081347 -2.60189 -2.600496 -3.280697 0.1335969 -3.188715 1 480
-2.120397 2.064804 1.691182 2.008119 2.107113 2.295052 -0.9775375 1.284904 -0.2979897 2.949887 -0.1921188 1.680564 -0.3268244 1.630261 3.13198 1.050543 2.443306 -1.773983 2.87588 -1.098004 0.9196745 -0.3078615 3.09136 -0.9125609 2.378187 -0.3841503 -1.69667 0.5217014 -1.647965 1.424129 -1.016537 -0.1100672 -1.854144 -1.07938 -1.755245 -0.4500917 -1.789199 -2.14172 -2.351866 -2.989818 0.20281 -8.477344 1 484
-2.528752 1.785963 1.578403 1.747454 1.721239 1.662289 -1.580422 0.9151987 -0.009960727 3.063587 -0.5225912 2.068138 -0.6374454 1.680097 3.044166 0.8206234 2.713855 -1.841428 3.522494 -0.6439579 1.259687 -0.2063113 3.423462 -0.5965769 2.559265 0.08288925 -1.305589 0.8962147 -1.374283 1.800844 -0.6931373 0.5154417 -1.513255 -0.6517664 -1.476902 -0.07138829 -1.479181 -1.722003 -2.065155 -2.684595 0.8792503 -14.13583 1 488
-2.798007 1.748557 1.58471 1.723863 1.501722 1.458555 -2.141166 0.6959836 0.1086465 3.110277 -0.7285744 2.166603 -0.799612 1.722807 2.91617 0.6634665 2.846176 -1.96002 3.756064 -0.4527803 1.500337 -0.114576 3.583147 -0.488037 2.597933 0.1701106 -1.054949 1.115399 -1.206469 1.978817 -0.588282 0.8056465 -1.319593 -0.3812076 -1.329811 0.1051292 -1.316587 -1.494818 -1.895161 -2.412643 1.259798 -16.63765 1 492
-2.430672 1.767331 1.708413 1.737621 1.429592 1.742134 -2.500734 0.7227125 0.02801441 2.766392 -0.8586981 1.887828 -0.8660659 1.653314 2.699009 0.472855 2.694865 -2.213989 3.348585 -0.6613179 1.52515 -0.151585 3.462228 -0.6590788 2.486568 -0.2399142 -1.020118 1.147258 -1.215136 1.921816 -0.7525702 0.666073 -1.274402 -0.3078106 -1.304443 0.1174788 -1.303369 -1.427783 -1.84288 -2.194137 1.150639 -13.91114 1 496
-1.724977 1.571837 1.621827 1.54011 1.330464 1.916688 -2.612526 0.6649086 -0.04283856 2.13922 -0.9886572 1.41816 -0.9399413 1.54532 2.490135 0.2281236 2.357125 -2.495527 2.630063 -0.8120667 1.43264 -0.2507813 3.141397 -0.8018584 2.307497 -0.621801 -1.01875 1.056492 -1.286708 1.77546 -0.88073 0.37906 -1.23223 -0.320129 -1.300092 0.0962638 -1.289229 -1.352225 -1.786465 -2.02556 1.108154 -8.967858 1 500
-1.119831 1.28363 1.329753 1.260925 1.245995 1.746774 -2.544271 0.4386572 -0.1248054 1.756148 -1.121668 1.154233 -1.046217 1.528103 2.392636 0.05579632 2.109997 -2.647096 2.262839 -0.78905 1.408893 -0.2948259 2.880295 -0.8051824 2.256228 -0.7542136 -0.9353026 0.9498156 -1.305557 1.709221 -0.8200079 0.3016558 -1.103173 -0.3104756 -1.228688 0.07958972 -1.177541 -1.146586 -1.66328 -1.839969 1.289594 -6.663048 1 504
-1.051939 1.141915 1.298574 1.108971 1.359803 1.703834 -2.441439 0.3590743 -0.3876523 1.91153 -1.310333 1.03639 -1.231915 1.595332 2.484928 0.04825579 2.079215 -2.668096 2.399021 -1.025735 1.492869 -0.2595212 2.821033 -0.8779536 2.48348 -0.8968491 -0.8085405 0.9185023 -1.234065 1.727512 -0.7507603 0.516983 -0.9047447 -0.2024968 -1.057043 0.0984638 -0.9915129 -0.815545 -1.453382 -1.481905 1.208196 -7.942567 1 508
-1.502923 1.079054 1.627763 1.012281 1.625386 2.096767 -2.401106 0.5691518 -0.858453 2.352268 -1.642405 0.7789783 -1.570267 1.663431 2.743922 0.1061348 2.170136 -2.72623 2.669498 -1.73811 1.594432 -0.207804 2.902413 -1.160249 2.922129 -1.163235 -0.6990476 1.000243 -1.130536 1.761989 -0.8382071 0.8606781 -0.6833877 0.06032528 -0.8058909 0.2181302 -0.7683198 -0.4217981 -1.146192 -0.8851309 0.6003655 -10.0662 1 512
-1.972023 0.8390313 1.92491 0.7469091 1.806927 2.536268 -2.445658 0.7550229 -1.371757 2.685839 -1.977823 0.4617266 -1.906653 1.677607 2.99486 0.06983235 2.260287 -2.934417 2.902199 -2.29504 1.636414 -0.2493914 3.053721 -1.570215 3.479558 -1.461191 -0.6257563 1.166101 -1.133843 1.848722 -1.019955 1.222153 -0.4686159 0.4461568 -0.5470358 0.4610213 -0.5208743 -0.0006894199 -0.7862139 -0.2099117 -0.1097886 -11.3685 1 516
-1.966605 0.4793498 1.994424 0.3938816 1.919313 2.716545 -2.513331 0.7004946 -1.74841 2.959067 -2.188072 0.3201597 -2.1071 1.654503 3.141742 -0.02894001 2.398156 -3.199589 3.195161 -2.032479 1.692317 -0.4146785 3.239274 -1.939484 3.991003 -1.73551 -0.5618824 1.36959 -1.305219 2.015893 -1.203132 1.567894 -0.3236246 0.8297971 -0.4011394 0.7045004 -0.348386 0.3909414 -0.5130175 0.2476883 -0.4811982 -12.90992 1 520
-1.216807 0.3004381 1.99588 0.2479546 2.142179 2.910113 -2.540657 0.6865984 -2.027071 3.474488 -2.402537 0.4709088 -2.311661 1.648678 3.262949 -0.0574348 2.696484 -3.418067 3.521667 -1.414281 1.841357 -0.6112067 3.409657 -2.290664 4.164638 -2.026563 -0.5008038 1.587857 -1.576405 2.147243 -1.484321 1.764742 -0.3563667 1.133756 -0.4480817 0.7833159 -0.3707659 0.6469149 -0.4664997 0.373475 -0.7627532 -14.92841 1 524
0.1083506 0.3339079 2.101713 0.3169758 2.419724 3.13028 -2.638507 1.063362 -2.366777 4.203185 -2.748923 0.9350612 -2.660898 1.729538 3.437569 0.02805738 3.158628 -3.564734 3.843265 -1.579185 2.073103 -0.7064576 3.638551 -2.813501 3.984205 -2.441692 -0.3911866 1.857289 -1.812012 2.202905 -1.92029 1.824787 -0.5315723 1.453791 -0.5911216 0.8009854 -0.5309485 0.8036135 -0.5573783 0.4383545 -1.411649 -16.62044 1 528
1.39902 0.4138436 2.21068 0.4230497 2.554438 2.926933 -2.926547 1.609785 -2.701528 4.739075 -3.12413 1.470128 -3.060463 1.911735 3.601377 0.2264625 3.616554 -3.585697 3.982414 -2.759681 2.356522 -0.635092 3.884025 -3.441082 3.503615 -2.918931 -0.1510883 2.172802 -1.894536 2.222261 -2.312146 1.843146 -0.6694911 1.828797 -0.6766161 0.9343231 -0.6643883 0.9745651 -0.6070094 0.6731009 -2.134349 -17.21586 1 532
1.986593 0.4668966 2.227458 0.4777547 2.472301 2.204565 -3.264519 1.855266 -2.797787 4.622895 -3.29341 1.673984 -3.279289 2.092747 3.60116 0.5036609 3.835817 -3.453323 3.579156 -3.938216 2.600857 -0.4669509 3.869589 -3.878549 2.635694 -3.159733 0.1492127 2.40548 -1.837321 2.19531 -2.455293 1.734205 -0.7104183 2.087127 -0.6773917 1.091784 -0.7019354 1.142573 -0.612633 0.9262449 -2.308068 -15.60348 1 536
1.655457 0.4373979 2.34122 0.4096647 2.251166 1.530029 -3.392524 1.812142 -2.582325 3.798114 -3.218512 1.582532 -3.258151 2.164549 3.369795 0.7467886 3.756565 -3.264816 2.849289 -4.369886 2.706791 -0.3520884 3.591481 -4.079168 1.789967 -3.118119 0.3517822 2.477568 -1.788974 2.201637 -2.463927 1.53669 -0.7420143 2.131287 -0.6719161 1.164446 -0.7039413 1.279847 -0.6250886 0.9804382 -1.976469 -12.30873 1 540
1.092373 0.4318356 2.572523 0.3610553 2.087684 1.727593 -3.157017 1.885464 -2.276104 2.765885 -3.148965 1.720684 -3.221465 2.102357 3.03586 0.8854535 3.502659 -3.154412 2.478871 -4.463315 2.636913 -0.3856746 3.319538 -4.263996 1.622248 -3.23599 0.3527532 2.42315 -1.895289 2.285288 -2.687546 1.363574 -0.9081333 2.022115 -0.8168688 1.132915 -0.83384 1.319019 -0.7357901 0.7648796 -1.785746 -8.92248 1 544
1.14752 0.7389196 2.652805 0.6698616 2.121312 2.884359 -2.686232 2.214247 -2.147727 2.100717 -3.243228 2.227885 -3.33686 1.955335 2.82431 0.9812315 3.229531 -3.106988 2.619685 -4.74173 2.433896 -0.4956352 3.203435 -4.516259 2.05432 -3.75884 0.1699147 2.296703 -2.124535 2.313805 -3.176575 1.151561 -1.278332 1.821049 -1.196187 0.9527497 -1.192234 1.153681 -1.051472 0.3815712 -2.086636 -6.16095 1 548
1.516682 1.244118 2.545585 1.208237 2.222288 4.029535 -2.313498 2.332187 -2.114958 1.972794 -3.294097 2.436801 -3.386276 1.809851 2.786746 1.100495 3.016674 -2.984096 2.747955 -4.865582 2.198891 -0.5179886 3.188986 -4.628921 2.40984 -4.211028 -0.03443551 2.167167 -2.264075 2.163829 -3.526386 0.8865772 -1.644499 1.586977 -1.599835 0.6733201 -1.574885 0.8834242 -1.40881 0.116714 -2.293606 -4.582646 1 552
1.486603 1.478465 2.450308 1.461575 2.18731 4.281834 -2.148494 1.910938 -1.951765 2.111887 -3.075441 1.895964 -3.12843 1.715976 2.771137 1.189186 2.882386 -2.752614 2.516438 -4.339537 2.032475 -0.4193625 3.138005 -4.404139 2.337785 -4.091642 -0.1084285 2.103609 -2.184612 1.895785 -3.437301 0.725717 -1.713728 1.405064 -1.718598 0.4613224 -1.682039 0.7417944 -1.514868 0.1498544 -1.829449 -4.830971 1 556
1.024968 1.255439 2.29722 1.233763 1.964329 3.542543 -2.034902 1.319885 -1.73295 2.155705 -2.712831 0.9353335 -2.75389 1.667215 2.698104 1.137724 2.843755 -2.51438 2.094824 -3.483489 2.002133 -0.2856037 3.018437 -3.945507 2.107999 -3.561867 -0.02601127 2.12043 -1.964219 1.732275 -3.017924 0.8193609 -1.453526 1.346608 -1.495025 0.5031815 -1.467101 0.8819788 -1.302354 0.4024892 -1.09827 -6.255899 1 560
0.4463378 0.7924183 1.956169 0.7642544 1.643936 2.405951 -1.842298 0.9845331 -1.629193 2.071261 -2.385453 0.0157716 -2.470834 1.623558 2.624538 0.9512211 2.854935 -2.345159 1.717329 -2.848649 2.041385 -0.2008663 2.861206 -3.504724 2.060713 -3.054629 0.08724862 2.13826 -1.757069 1.775892 -2.589903 1.094982 -1.119461 1.370145 -1.171944 0.8013199 -1.156189 1.211416 -0.975325 0.6682311 -0.7103992 -7.200901 1 564
0.3475798 0.4544885 1.645623 0.432183 1.408495 1.73633 -1.612316 0.8922927 -1.616093 2.049435 -1.995336 -0.534462 -2.094764 1.49981 2.573567 0.737615 2.785204 -2.242896 1.529232 -2.447155 1.964938 -0.2489028 2.615741 -3.211433 2.22615 -2.769508 0.02052043 2.040009 -1.681092 1.844688 -2.391587 1.308308 -1.004565 1.342406 -1.047092 1.093536 -1.035525 1.412383 -0.8210097 0.7623444 -0.7382718 -7.230919 1 568
1.106778 0.4324857 1.584713 0.4241365 1.388666 1.747284 -1.496237 0.9556437 -1.67238 2.155935 -1.496093 -0.5460188 -1.54564 1.27423 2.544931 0.5593219 2.621814 -2.190954 1.628445 -2.336424 1.740345 -0.4011162 2.324391 -3.109652 2.474018 -2.739728 -0.2501001 1.844862 -1.715917 1.800415 -2.42202 1.408516 -1.104421 1.23338 -1.137267 1.252433 -1.138371 1.395456 -0.8752237 0.7344833 -1.094903 -7.360157 1 572
1.994054 0.6457809 1.748488 0.6494663 1.573753 1.922819 -1.540147 1.345297 -1.883713 2.404711 -1.173562 -0.05751126 -1.178052 1.085524 2.59225 0.4354295 2.599218 -2.187019 2.019759 -2.758111 1.587496 -0.490638 2.220874 -3.161541 2.635443 -2.923511 -0.494876 1.735825 -1.736582 1.746091 -2.526668 1.561718 -1.202207 1.147679 -1.217091 1.402815 -1.254083 1.385584 -0.9324062 0.7667418 -1.86641 -8.622562 1 576
1.862213 0.909767 1.904778 0.925559 1.788455 1.90907 -1.692064 1.901515 -2.152609 2.743761 -1.252826 0.642616 -1.249236 1.017056 2.65252 0.3401254 2.80038 -2.198563 2.45006 -3.366184 1.63144 -0.4557614 2.33478 -3.147462 2.531968 -3.060028 -0.5419602 1.782397 -1.665702 1.7231 -2.484018 1.735402 -1.160768 1.153787 -1.122518 1.550268 -1.201719 1.46719 -0.8611509 0.8519032 -2.782147 -10.2153 1 580
0.6421979 1.074833 1.752818 1.114369 1.799186 1.747429 -1.983994 2.051928 -2.231043 2.875506 -1.578472 1.074559 -1.584902 0.9827694 2.539559 0.1771624 2.93634 -2.173285 2.525504 -3.52231 1.723921 -0.3824621 2.399543 -2.874804 2.173925 -2.912726 -0.4462508 1.867194 -1.501034 1.676658 -2.197206 1.774681 -0.9616632 1.241644 -0.8692847 1.635339 -0.9641609 1.570799 -0.6733323 0.901063 -3.184247 -10.21777 1 584
-0.4755242 1.14221 1.322835 1.220357 1.582622 1.420859 -2.498655 1.833482 -2.122465 2.646609 -1.860657 1.173823 -1.877691 0.895109 2.246047 -0.08252993 2.828161 -2.118294 2.31443 -3.094749 1.732935 -0.3185823 2.316121 -2.431765 1.804122 -2.629267 -0.3446068 1.942901 -1.27467 1.649529 -1.85273 1.754462 -0.7153921 1.385182 -0.6129181 1.724247 -0.6846876 1.685305 -0.4471606 0.9677213 -3.068533 -9.078175 1 588
-0.6403768 1.129621 1.029096 1.236973 1.272556 0.928643 -3.181399 1.732679 -1.982735 2.328018 -1.930684 1.232316 -1.942072 0.7651419 1.902015 -0.3340198 2.574275 -2.060023 2.198298 -2.504039 1.685683 -0.2481846 2.203044 -2.040481 1.605421 -2.395345 -0.3002497 2.041435 -1.01311 1.66621 -1.62395 1.818784 -0.5151092 1.52299 -0.4282909 1.838642 -0.4531398 1.794324 -0.2042554 1.113486 -2.942629 -8.879644 1 592
-0.4050306 0.9054835 1.157917 0.993134 0.8993442 0.4417191 -3.821944 1.716082 -1.737636 2.032848 -1.790695 1.341047 -1.7813 0.6715032 1.541505 -0.4973335 2.265526 -1.980795 2.301965 -2.122656 1.657438 -0.1543814 2.148555 -1.756003 1.613204 -2.141806 -0.2472967 2.155113 -0.758392 1.713696 -1.437804 1.994199 -0.2783823 1.622799 -0.2189794 1.918071 -0.1999936 1.898267 0.09186435 1.276225 -2.683484 -10.34354 1 596
-0.5400434 0.5263789 1.476565 0.5502207 0.4819208 0.1748228 -4.216244 1.508128 -1.269515 1.547924 -1.633374 1.467023 -1.607766 0.6164611 1.160544 -0.6413116 1.926568 -1.906873 2.490331 -1.740758 1.663574 -0.09653358 2.1778 -1.516996 1.772945 -1.793238 -0.1209619 2.245193 -0.6103042 1.81674 -1.238747 2.188078 0.004442559 1.72719 0.01106939 1.917013 0.05048698 2.004853 0.3489643 1.343276 -1.978508 -12.28735 1 600
-0.8624946 0.2790556 1.523769 0.2468496 0.1552497 0.3576193 -4.296435 1.185809 -0.8203913 0.9589959 -1.664858 1.491579 -1.661657 0.5204112 0.8413419 -0.8483153 1.597846 -1.926248 2.509913 -1.090863 1.656148 -0.1814778 2.247149 -1.378993 1.875629 -1.360977 0.003283956 2.268838 -0.6168625 1.945013 -1.12337 2.249941 0.1976402 1.852765 0.1552622 1.867927 0.2003475 2.049815 0.4533176 1.270622 -1.25168 -12.87739 1 604
-0.9968443 0.2783954 1.188143 0.2308466 -0.001620574 0.8274939 -4.252271 1.064452 -0.7411253 0.5996638 -1.947828 1.505225 -2.010913 0.4071492 0.7075299 -1.081783 1.361682 -2.087391 2.472192 -0.5427008 1.636949 -0.3466159 2.364893 -1.460046 1.942591 -0.9875768 0.07861891 2.277755 -0.688346 2.105279 -1.129685 2.271717 0.3007197 2.003534 0.2670127 1.917499 0.3052405 2.061575 0.4963904 1.194577 -1.148568 -12.44395 1 608
-1.374484 0.4471326 0.7310536 0.4153027 -0.04032419 1.010367 -4.397371 1.351739 -1.023309 0.6102985 -2.38557 1.876225 -2.497243 0.3806013 0.7927529 -1.292054 1.283524 -2.34316 2.927914 -0.650882 1.652062 -0.4141724 2.651727 -1.745377 2.442146 -0.8551399 0.182988 2.399868 -0.6964493 2.412015 -1.167771 2.552572 0.4394401 2.216548 0.4688074 2.169578 0.4635012 2.171184 0.6353468 1.32784 -1.756322 -13.37292 1 612
-2.331286 0.6061547 0.4030557 0.5914632 -0.01908569 0.7978936 -4.677469 1.805845 -1.362174 0.9432552 -2.651488 2.386606 -2.760114 0.4524617 0.9972005 -1.448632 1.31388 -2.57345 3.748263 -1.338241 1.685419 -0.3651969 3.008649 -2.074239 3.319266 -0.855889 0.3167836 2.60872 -0.6308781 2.758922 -1.156042 3.005783 0.6408818 2.426653 0.7027264 2.465814 0.6506482 2.326483 0.8397043 1.621721 -2.452621 -15.72745 1 616
-3.065025 0.571659 0.3308032 0.5489749 0.06272232 0.6760141 -4.635225 2.041802 -1.499323 1.46268 -2.496165 2.46842 -2.586339 0.5403144 1.214559 -1.491734 1.336507 -2.709401 4.149816 -1.855396 1.647159 -0.3415718 3.103653 -2.287602 3.805172 -0.7682616 0.3200011 2.688836 -0.6191999 2.821465 -1.099187 3.174658 0.8066182 2.429865 0.8345081 2.466596 0.76498 2.329998 0.9423437 1.746325 -2.641651 -17.19036 1 620
-2.873492 0.3277721 0.4979199 0.2738507 0.2005115 0.8336486 -4.078903 2.01384 -1.419385 2.064979 -2.060218 2.325805 -2.147466 0.592123 1.457465 -1.409432 1.34952 -2.774001 4.189945 -1.604411 1.501078 -0.4245432 2.943805 -2.327403 3.793996 -0.5779591 0.09066664 2.536802 -0.714447 2.596218 -1.030419 3.012014 0.8821892 2.194697 0.8849286 2.080919 0.7812876 2.130511 0.9062847 1.550926 -2.426037 -18.14561 1 624
-2.042552 0.0301117 0.7069989 -0.04800444 0.3470838 1.079215 -3.349325 1.75329 -1.263813 2.53707 -1.58756 2.519789 -1.678233 0.624515 1.717954 -1.230847 1.379926 -2.81473 4.421736 -1.048136 1.308122 -0.5524186 2.857911 -2.318535 3.807498 -0.44026 -0.248547 2.242277 -0.8530362 2.351042 -1.044397 2.786614 0.8762055 1.908098 0.8749294 1.562512 0.7378141 1.785552 0.7992772 1.217421 -2.034559 -19.67797 1 628
-1.099455 -0.09823978 0.7865076 -0.1764374 0.4575458 1.432813 -2.867615 1.328286 -1.099852 2.584009 -1.255583 2.915016 -1.32479 0.6574734 1.863202 -1.015077 1.339932 -2.903894 4.559408 -1.208482 1.100105 -0.6724818 2.911025 -2.506862 3.817365 -0.4954372 -0.5218639 1.897128 -1.027473 2.130596 -1.255561 2.439718 0.7750263 1.631821 0.7238141 1.131298 0.6259722 1.334192 0.618176 0.9223167 -1.494117 -18.95955 1 632
-0.4553298 0.04168229 0.8445066 -0.03433673 0.5204802 1.976769 -2.823115 1.144433 -0.8697783 2.440384 -1.253852 3.05192 -1.267378 0.6758136 1.853317 -0.921647 1.273661 -3.119745 4.230372 -2.167215 0.9138426 -0.7984474 2.978818 -2.926794 3.607487 -0.6730228 -0.6779728 1.593814 -1.255365 1.893788 -1.580796 1.908989 0.6180181 1.332589 0.4817988 0.8192877 0.4602701 0.8758348 0.3887733 0.6835409 -1.080025 -14.70544 1 636
-0.2781934 0.3441577 1.112876 0.2444978 0.5906895 2.608698 -3.104014 1.579765 -0.6675313 2.637411 -1.553949 2.915956 -1.529566 0.6652818 1.845073 -1.053227 1.377019 -3.439133 3.885602 -3.008325 0.842389 -0.9250664 3.086085 -3.364442 3.489874 -0.8279848 -0.7524284 1.426833 -1.473191 1.777499 -1.820493 1.505932 0.4744079 1.080177 0.3033293 0.6161315 0.3021228 0.5733213 0.2306907 0.4582797 -1.292168 -10.8844 1 640
-0.5426311 0.5908628 1.476572 0.4521714 0.6793782 3.101537 -3.387826 2.291783 -0.6806697 3.124141 -1.81436 2.583798 -1.813577 0.6189247 1.94923 -1.314523 1.593049 -3.7019 3.820243 -2.980817 0.8691141 -0.9909279 3.196337 -3.608996 3.67943 -0.9083512 -0.7748631 1.368531 -1.552225 1.818026 -1.873533 1.431104 0.381758 0.9551423 0.2492678 0.537142 0.2081477 0.5191097 0.2277187 0.2769965 -2.045762 -10.00858 1 644
-1.155002 0.5587272 1.649712 0.3864845 0.6736031 3.180314 -3.497704 2.580095 -0.7486988 3.377726 -1.83609 1.971252 -1.877613 0.5181992 2.046108 -1.562241 1.623341 -3.795467 3.617248 -2.141132 0.8470833 -0.9259449 3.090638 -3.576088 3.830843 -0.861729 -0.7356958 1.275506 -1.453468 1.833353 -1.75975 1.461953 0.3907039 0.9338445 0.2985657 0.5378818 0.2336376 0.6149805 0.3437651 0.2552808 -2.508847 -9.695373 1 648
-1.752525 0.2786375 1.678284 0.07436498 0.5379805 2.948143 -3.484401 2.387705 -0.6223889 3.151938 -1.798604 1.349682 -1.862034 0.4015194 1.985262 -1.709095 1.404816 -3.750386 3.152362 -1.179713 0.7212891 -0.7522186 2.75333 -3.365568 3.7038 -0.6719652 -0.6513332 1.093958 -1.28292 1.747653 -1.570431 1.412537 0.5083047 0.9319379 0.4127765 0.5445996 0.3844265 0.6674681 0.4908116 0.4192988 -2.28205 -8.407276 1 652
-1.946865 0.04168087 1.665151 -0.1867486 0.3754118 2.824081 -3.380685 2.156909 -0.4521332 2.783183 -1.851674 1.084346 -1.930718 0.3245145 1.810207 -1.780637 1.176959 -3.643612 2.763752 -0.6899435 0.5853369 -0.586857 2.408126 -3.153679 3.417904 -0.4580527 -0.563969 0.8951432 -1.141718 1.658143 -1.415254 1.343762 0.6352192 0.8856523 0.527031 0.540657 0.5580181 0.6396752 0.6132631 0.6299148 -1.925935 -7.235557 1 656
-1.686925 -0.0445926 1.534629 -0.271888 0.2522595 2.867227 -3.227987 2.145067 -0.5021309 2.701383 -1.886635 1.128353 -1.976163 0.2206785 1.652421 -1.917994 1.097555 -3.58731 2.555995 -0.7039759 0.5015051 -0.5304637 2.132878 -3.01801 3.131769 -0.3497202 -0.4986151 0.7088282 -1.066562 1.654832 -1.348745 1.286895 0.6894073 0.8013344 0.6002455 0.5379282 0.6619135 0.6049521 0.6885142 0.6967119 -2.09097 -6.144548 1 660
-1.335542 -0.08466864 1.271984 -0.2825713 0.1531383 2.812168 -3.182722 2.348137 -0.7423027 3.020059 -1.876323 1.380607 -1.971794 0.03534802 1.580876 -2.152658 1.187628 -3.629304 2.658192 -0.9303472 0.4748526 -0.5450522 1.973717 -2.896748 3.107112 -0.2623242 -0.4538116 0.6183267 -1.017485 1.819186 -1.271636 1.33374 0.7304506 0.756936 0.6746904 0.5731816 0.7514302 0.593264 0.7596791 0.5922967 -2.756672 -5.815035 1 664
-1.373373 -0.4101119 -1.738019 -1.598582 -1.387486 -3.546051 -1.388259 0.3844908 0.7383665 0.7146814 0.6962664 0.789055 0.6460889 0.272581 -1.732618 -0.7788993 -0.6931562 -2.330521 0.853722 0.7081984 -0.3370553 -3.382947 1.609684 -1.310443 1.591968 -1.424289 -2.004004 -0.02693978 -1.572899 1.66557 0.3463684 1.571421 1.649528 1.541828 0.408433 1.446748 2.24386 1.590971 1.76065 1.642399 -1.123189 3.286083 2 -168
-1.234118 -0.3223627 -1.393045 -1.322559 -1.039911 -3.114723 -0.774259 0.248406 0.3625122 0.5171356 0.3306408 0.59445 0.2441861 0.6209808 -1.230975 -0.2037179 -0.2186911 -2.006386 0.6781573 0.2566242 -0.1988344 -3.273922 1.356743 -1.450241 1.336691 -1.598789 -1.749862 0.1421886 -1.6349 1.350293 0.007548939 1.297018 1.305601 1.325803 0.4419676 1.196229 1.967143 1.318346 1.507553 1.49932 -1.033565 3.894659 2 -164
-1.018644 -0.4015418 -1.130344 -1.127904 -0.681168 -2.65059 -0.4629049 0.3433741 -0.3518793 0.1556381 -0.3887194 0.2117957 -0.4771633 1.166926 -0.6036756 0.1700671 0.02125192 -1.644211 0.3101902 -0.4967133 0.09925716 -2.906654 1.036955 -1.488191 1.036107 -1.668175 -1.385877 0.2621755 -1.410804 0.9962172 -0.06090476 0.9644374 1.05496 1.088642 0.7218014 0.9459184 1.950569 1.001312 1.474753 1.302307 -0.5251032 4.566534 2 -160
-0.8367235 -0.5167375 -0.9459236 -1.135045 -0.4089319 -2.351057 -0.3456452 0.4688068 -0.7554325 -0.2940745 -0.7957047 -0.2780394 -0.8448114 1.64775 -0.07244509 0.2464581 -0.07012319 -1.329372 -0.1841336 -0.8378277 0.4203356 -2.469928 0.6528548 -1.337129 0.6361298 -1.497054 -0.9023138 0.350302 -0.9557827 0.5902531 0.01766136 0.5181178 0.8980216 0.7511843 1.137047 0.5873117 2.029177 0.5856712 1.499328 1.093972 0.1512658 4.883206 2 -156
-0.6854063 -0.4558825 -0.8170561 -1.122583 -0.2702212 -2.197543 -0.3327918 0.4697292 -0.3645607 -0.6126668 -0.4156166 -0.6148201 -0.4318502 1.783376 0.1521281 0.1764591 -0.299349 -1.187646 -0.5393388 -0.3451492 0.5688188 -2.277306 0.1495785 -1.079546 0.1114025 -1.162293 -0.5566787 0.409972 -0.5179484 0.0800076 0.2221472 -0.05108222 0.8043661 0.259593 1.406255 0.0542616 2.054351 0.03031809 1.379202 0.8251814 0.6900952 4.710089 2 -152
-0.4903572 -0.3092483 -0.8429794 -0.9547802 -0.3271837 -2.128074 -0.6079521 0.5898256 0.2816601 -0.6128805 0.205921 -0.6156607 0.1905335 1.508174 0.0001034303 -0.02752035 -0.4793473 -1.350624 -0.5516041 0.3416656 0.4796991 -2.43195 -0.2054742 -0.9126044 -0.2320923 -0.9121489 -0.5804283 0.4765308 -0.3029296 -0.2528308 0.6686789 -0.4118277 0.8805047 -0.1053278 1.428996 -0.3205692 2.141929 -0.3336956 1.263474 0.5979239 0.9783226 4.26593 2 -148
-0.4112279 -0.3038911 -1.096703 -0.8707293 -0.6184712 -2.152755 -1.200657 0.9290451 0.4933993 -0.4096168 0.3982429 -0.4042765 0.3813044 0.952219 -0.4330963 -0.4646876 -0.6896135 -1.741646 -0.3428999 0.5494182 0.267491 -2.651782 -0.2102876 -0.7870688 -0.2171055 -0.7642552 -0.8425383 0.51437 -0.1650637 -0.2469382 1.382537 -0.3897801 1.266793 -0.1456915 1.523983 -0.3414043 2.522569 -0.3039798 1.570192 0.6851279 0.9698277 3.799044 2 -144
-0.7098508 -0.5515581 -1.504165 -1.041367 -1.097508 -2.283564 -1.820571 1.014016 0.3159563 -0.2917771 0.2340749 -0.2679406 0.2279509 0.3201772 -0.975302 -1.104741 -1.04122 -2.059056 -0.2122597 0.3689538 0.1272808 -2.546072 -0.07304187 -0.5042929 -0.07135911 -0.5109038 -0.990991 0.5032394 0.2501613 -0.1269404 2.209113 -0.2245494 1.874227 -0.04296103 2.074067 -0.245793 3.220811 -0.1170208 2.297535 1.096494 0.6564482 3.624062 2 -140
-1.282969 -0.919636 -1.909586 -1.413354 -1.632881 -2.523189 -2.170896 0.5548345 0.1776645 -0.3351262 0.1489004 -0.2869892 0.1565397 -0.2143601 -1.490819 -1.761737 -1.381683 -2.061489 -0.2613376 0.2367406 0.2013678 -2.006349 -0.09794664 0.004151994 -0.08035905 -0.01936829 -0.8518822 0.5290628 1.076905 -0.159866 3.01593 -0.233738 2.461571 -0.0680381 3.011997 -0.3081624 4.01604 -0.09087558 2.968807 1.479348 0.2100925 3.31245 2 -136
-1.769641 -1.222925 -2.308664 -2.017286 -2.234274 -2.897875 -2.402602 0.02617566 0.1840926 -0.41554 0.2022534 -0.3425783 0.2325839 -0.6053984 -1.98595 -2.333001 -1.473715 -1.866451 -0.37162 0.2383081 0.4376321 -1.311059 -0.2136028 0.6174778 -0.1652673 0.6041502 -0.5613784 0.6325979 2.073828 -0.2559301 3.824792 -0.3509588 2.965829 -0.1408003 3.8853 -0.398167 4.757771 -0.1737059 3.39493 1.599934 -0.1028873 2.243735 2 -132
-2.031348 -1.612585 -2.717363 -2.896955 -2.995108 -3.423496 -2.880499 -0.0633031 0.1022334 -0.5029562 0.1262175 -0.4401875 0.1795194 -0.9092039 -2.498856 -2.817826 -1.244645 -1.684559 -0.4909964 0.1321709 0.6732426 -0.7343597 -0.1320071 1.178202 -0.04925344 1.161332 -0.3667735 0.7454908 2.940587 -0.1368283 4.684108 -0.2486916 3.476882 -0.004514434 4.411057 -0.2006546 5.462317 -0.07574164 3.772408 1.537964 -0.3096716 0.884627 2 -128
-2.248584 -2.191517 -3.042231 -3.738192 -3.7822 -3.994191 -3.500805 -0.05812343 -0.1079051 -0.7849692 -0.09068491 -0.7653994 -0.04666298 -1.192654 -2.961523 -3.195992 -0.8663323 -1.419338 -0.7827112 -0.08523646 0.8696514 -0.2113551 0.1605536 1.668775 0.24667 1.631539 -0.3568247 0.7914585 3.581387 0.1915963 5.533803 0.08777007 4.004398 0.2914202 4.737008 0.2134576 6.118774 0.2310184 4.222364 1.516523 -0.6357626 -0.03831321 2 -124
-2.601422 -2.680597 -3.31948 -4.253351 -4.398805 -4.399323 -3.900565 -0.4385781 -0.200193 -1.320228 -0.1903831 -1.324041 -0.1711164 -1.44659 -3.299837 -3.535444 -0.653364 -0.9199514 -1.311808 -0.157072 1.097799 0.4468929 0.4443754 2.114515 0.4926028 2.085407 -0.3385239 0.7893528 4.0275 0.5058357 6.131691 0.4013659 4.380319 0.5458119 5.07931 0.5246705 6.546629 0.5392764 4.593153 1.684054 -0.9900323 -0.5804832 2 -120
-3.022134 -2.885961 -3.606246 -4.644377 -4.829855 -4.543751 -4.031785 -0.9618824 0.08389499 -1.834161 0.05670932 -1.841375 0.09304113 -1.66422 -3.552794 -3.926216 -0.7474303 -0.3830141 -1.833991 0.1729812 1.335384 1.134795 0.5196401 2.42186 0.5262526 2.438995 -0.1064946 0.8006775 4.311705 0.6021188 6.319702 0.4968055 4.511153 0.6456074 5.431062 0.5675089 6.67282 0.6538838 4.809266 1.957477 -1.090715 -1.056691 2 -116
-3.346123 -2.959475 -3.876631 -5.06618 -5.159722 -4.529636 -4.185583 -1.25253 0.6854602 -2.073299 0.6243392 -2.08622 0.6813477 -1.930519 -3.809099 -4.29769 -0.904973 -0.1162183 -2.081944 0.8275999 1.462142 1.523633 0.4263285 2.465553 0.4063741 2.506941 0.2113891 0.8385027 4.432549 0.5042295 6.296346 0.4354485 4.589561 0.6205912 5.688128 0.4564693 6.742335 0.5872611 5.057445 2.202111 -1.050766 -1.546037 2 -112
-3.474077 -3.074518 -4.151253 -5.283745 -5.415079 -4.49165 -4.600398 -1.27155 1.137434 -1.994603 1.098535 -2.003623 1.107978 -2.212335 -4.031112 -4.517506 -0.7968326 -0.1300344 -1.982348 1.272038 1.438184 1.542821 0.4069664 2.244639 0.3813857 2.25731 0.3403882 0.8886901 4.39996 0.4509014 6.308572 0.4505602 4.753993 0.6290835 5.784086 0.4305987 6.926242 0.5595679 5.374716 2.367508 -1.25556 -1.866616 2 -108
-3.450279 -3.151411 -4.34267 -5.137461 -5.458933 -4.415785 -4.997412 -1.270349 1.185785 -1.759545 1.186545 -1.741962 1.121275 -2.289364 -4.030812 -4.494394 -0.4017798 -0.2008184 -1.700813 1.239382 1.404917 1.477668 0.434535 1.925278 0.4121363 1.902557 0.2709967 0.9079995 4.275673 0.4259657 6.313446 0.4819462 4.824649 0.6296966 5.712019 0.4304377 7.034895 0.556652 5.484213 2.357237 -1.59957 -1.553317 2 -104
-3.399387 -3.110348 -4.234652 -4.697658 -5.178884 -4.173223 -4.941156 -1.563893 0.8791388 -1.678263 0.8983565 -1.623798 0.7965876 -2.045901 -3.727046 -4.259815 0.03008001 -0.1960356 -1.580235 0.8503106 1.516617 1.560021 0.3940936 1.645643 0.3560201 1.600741 0.2434089 0.8875387 4.132168 0.3481071 6.097471 0.409628 4.619507 0.5727508 5.530944 0.3610325 6.82646 0.4942741 5.243818 2.217297 -1.488616 -0.6134199 2 -100
-3.273776 -3.042114 -3.774891 -4.024022 -4.660235 -3.751038 -4.426708 -2.045538 0.24285 -1.771416 0.2952265 -1.710482 0.1903087 -1.59679 -3.233174 -3.932808 0.2304695 -0.1884119 -1.679756 0.1910338 1.686604 1.709011 0.3510805 1.365949 0.3174015 1.310191 0.3788474 0.8701909 4.006083 0.3166546 5.691674 0.3361555 4.255785 0.5658371 5.320343 0.3358721 6.391529 0.4635262 4.919381 2.095868 -0.8090536 0.08215886 2 -96
-2.960896 -2.86861 -3.117625 -3.163983 -3.994728 -3.194402 -3.648191 -2.295929 -0.4175697 -1.753192 -0.3168951 -1.720994 -0.4078995 -1.126619 -2.647382 -3.498268 0.16221 -0.2729536 -1.694379 -0.4269084 1.699505 1.690842 0.1900337 1.070969 0.2136084 1.037458 0.4859223 0.7688755 3.825565 0.1969175 5.382111 0.174612 3.959623 0.4493377 5.049223 0.2309084 6.005734 0.3445659 4.801567 1.920863 -0.2257809 0.09298994 2 -92
-2.532652 -2.455702 -2.385266 -2.202752 -3.242689 -2.448933 -2.832331 -2.157643 -0.7722312 -1.593563 -0.686807 -1.569155 -0.7207795 -0.7429358 -2.020674 -2.919518 0.02162925 -0.4795908 -1.555835 -0.7172692 1.497596 1.378722 -0.0729863 0.781848 -0.007577528 0.7752926 0.3317517 0.4486211 3.406284 -0.05644781 5.114276 -0.06991419 3.704792 0.1632244 4.550426 -0.01052182 5.613536 0.1097081 4.748513 1.673725 -0.2305498 0.1648117 2 -88
-2.239836 -2.017317 -1.731593 -1.480945 -2.531243 -1.629106 -2.257955 -1.891837 -0.9509088 -1.452533 -0.9410517 -1.418578 -0.8831913 -0.3990857 -1.427099 -2.317482 -0.02722664 -0.7186738 -1.441827 -0.8591121 1.213165 0.9699138 -0.1456153 0.4971635 -0.08596878 0.4765452 0.0260738 0.0107827 2.795448 -0.1437614 4.60614 -0.1186119 3.322659 0.01103319 3.906196 -0.1230207 5.012348 0.02676968 4.449699 1.523668 -0.4021586 0.7882137 2 -84
-2.194595 -1.745406 -1.383421 -1.459105 -1.945664 -1.001218 -2.002511 -1.771482 -1.161541 -1.429486 -1.18211 -1.420584 -1.062521 0.005377596 -0.9157709 -1.814072 -0.05139095 -0.7800337 -1.462071 -1.056331 1.012209 0.7811515 -0.06070434 0.3072166 -0.002026092 0.2655688 -0.07769846 -0.3170206 2.350746 -0.02577485 3.956792 0.001588442 2.868966 0.03895677 3.538916 -0.06080085 4.411798 0.09796996 4.01097 1.481094 -0.1186254 1.371932 2 -80
-2.147387 -1.513517 -1.245212 -1.880634 -1.476223 -0.5693164 -1.839112 -1.791708 -1.31919 -1.624241 -1.310481 -1.658097 -1.183745 0.4211102 -0.5167868 -1.417605 -0.186384 -0.6380022 -1.692509 -1.195877 0.9609237 0.7760023 -0.02260177 0.2242781 0.04842783 0.1938136 0.1757347 -0.4744941 2.160572 0.07771304 3.362099 0.06461287 2.470606 0.0574088 3.527675 0.01051591 4.007465 0.1263708 3.693053 1.453815 0.5065048 1.384094 2 -76
-1.967112 -1.225911 -1.059438 -2.057985 -1.101079 -0.2018156 -1.505593 -1.803358 -1.275092 -1.789655 -1.239419 -1.84735 -1.14094 0.7530277 -0.2248776 -1.047049 -0.3068232 -0.5060802 -1.878101 -1.130957 1.022579 0.6893018 -0.02674112 0.07176512 0.06079576 0.03850969 0.5726798 -0.5329795 1.939561 0.1025183 2.755054 0.05633147 2.050948 0.03915373 3.422671 0.02995558 3.532737 0.09392504 3.357965 1.437142 1.066275 0.7754297 2 -72
-1.785585 -0.8614696 -0.8756389 -1.855731 -0.778841 0.07828034 -1.047 -1.684973 -1.060298 -1.503137 -1.027161 -1.549349 -0.9662907 1.011484 0.0499415 -0.6126507 -0.1750316 -0.5481223 -1.59616 -0.92978 1.142243 0.39883 -0.03033381 -0.2569507 0.08672181 -0.3352668 0.7892337 -0.5317339 1.483985 0.08256821 2.04246 0.04311183 1.521049 0.02143971 2.85968 0.00693978 2.764853 0.05966486 2.797618 1.368935 1.430339 -0.02783728 2 -68
-1.55953 -0.4305613 -0.762599 -1.511299 -0.4275311 0.2202898 -0.6709405 -1.48306 -0.8197443 -0.9295391 -0.8105921 -0.9467238 -0.7897242 1.239691 0.3999975 -0.1215535 0.1838052 -0.7023138 -1.009079 -0.7579522 1.293911 0.01096267 -0.006366394 -0.5743587 0.1095241 -0.6769582 0.7575663 -0.4647091 0.7891514 0.06510374 1.211954 0.05479452 0.9082507 0.01756675 1.878892 -0.01120983 1.777746 0.05403577 2.052423 1.129077 1.581598 -0.2702023 2 -64
-1.202979 -0.05699282 -0.5706877 -1.131516 -0.004657166 0.258187 -0.3623469 -1.363886 -0.7102582 -0.5214859 -0.7147723 -0.5373998 -0.7267166 1.440253 0.7932886 0.3306227 0.4922075 -0.7401197 -0.5814586 -0.7037502 1.426983 -0.2533861 0.09677751 -0.644316 0.1544736 -0.6931104 0.6691485 -0.3143462 0.005752878 0.1127972 0.2993093 0.124258 0.2553107 0.0618117 0.7961077 0.0375822 0.7150489 0.1050195 1.193134 0.7406172 1.51543 0.2108879 2 -60
-0.7636507 0.2188167 -0.2278035 -0.7228853 0.4464593 0.2370106 0.00747637 -1.273058 -0.7261275 -0.3420675 -0.7281778 -0.3759813 -0.7288944 1.510438 1.050266 0.6817883 0.5411522 -0.5712215 -0.3907791 -0.6928887 1.381674 -0.3494276 0.2615419 -0.589487 0.2512227 -0.5375955 0.6351256 -0.08708742 -0.6845616 0.2195616 -0.6105362 0.2425969 -0.3698253 0.1806693 -0.1092059 0.1593585 -0.2790668 0.2102636 0.3051665 0.3768754 1.241346 1.001904 2 -56
-0.2622857 0.411438 0.2233102 -0.3146213 0.8333388 0.2005837 0.4471625 -0.8921469 -0.6720198 -0.1218582 -0.6807314 -0.1689334 -0.6424188 1.316396 1.035986 0.991786 0.428126 -0.3304156 -0.161939 -0.5903716 1.00739 -0.4604534 0.4486673 -0.6828207 0.3933403 -0.5837632 0.5377286 0.1532387 -1.278295 0.3643175 -1.439528 0.4081159 -0.9187729 0.364385 -0.8813881 0.3531256 -1.190875 0.377153 -0.597954 0.1432673 0.8244703 1.608171 2 -52
0.2555948 0.5374035 0.7378645 0.203495 1.109753 0.2607922 0.9208896 -0.1477801 -0.4417036 0.3173453 -0.4473355 0.2661419 -0.4097389 0.8889751 0.8374088 1.339556 0.3550308 -0.1243665 0.3041033 -0.3654183 0.3588426 -0.7181273 0.5828975 -0.9033298 0.5150583 -0.8641392 0.2299506 0.2943935 -1.833106 0.4912623 -2.086626 0.5669321 -1.367936 0.499811 -1.675917 0.5207282 -2.053603 0.5471055 -1.502645 0.01244551 0.3550102 1.632763 2 -48
0.7571789 0.7402483 1.186501 0.9456964 1.347926 0.5391679 1.338562 0.7257205 -0.1536677 0.8630549 -0.1157065 0.8184879 -0.1356049 0.4411049 0.6800629 1.659319 0.3421774 0.03073215 0.8916166 -0.1164697 -0.366889 -1.065109 0.5733788 -1.038403 0.5237225 -1.111587 -0.2276341 0.3049997 -2.32393 0.5016272 -2.551229 0.5898564 -1.700381 0.4899815 -2.467469 0.5073199 -2.79341 0.5918804 -2.19295 -0.05593052 -0.1552465 1.181236 2 -44
1.364565 1.167181 1.50858 1.702305 1.685806 1.066686 1.672557 1.505995 0.0989569 1.311381 0.1778586 1.265243 0.09383167 0.1611144 0.7556716 1.837004 0.2721589 0.1499811 1.3512 0.1006739 -0.9757299 -1.36422 0.5305488 -1.036095 0.4906997 -1.168885 -0.607847 0.2911531 -2.763227 0.4760868 -3.107633 0.5480585 -2.070154 0.4471515 -3.270443 0.4409857 -3.533651 0.5577812 -2.731688 -0.2355251 -0.6241573 0.4573365 2 -40
2.217967 1.805931 1.883502 2.396116 2.162796 1.748993 2.097284 2.016716 0.410927 1.5705 0.4830566 1.521918 0.3669557 0.006179441 1.01539 1.899675 0.1046897 0.2972035 1.575291 0.3899335 -1.405943 -1.533304 0.5367993 -0.9733233 0.4868266 -1.060775 -0.7890923 0.3004858 -3.156285 0.496503 -3.876481 0.5278973 -2.627269 0.4231896 -4.152864 0.4759173 -4.457486 0.5080068 -3.481079 -0.7655224 -0.9124598 -0.5346733 2 -36
3.177548 2.436554 2.430485 3.225277 2.62524 2.375447 2.610449 2.2514 0.8623734 1.701881 0.8992304 1.683064 0.7740713 -0.2029688 1.201342 1.943416 -0.03876774 0.5099776 1.69295 0.8235189 -1.780042 -1.563367 0.3933446 -0.8560776 0.3555041 -0.8463363 -0.8871855 0.2280621 -3.382671 0.378461 -4.461678 0.3472083 -3.18581 0.2522524 -4.922214 0.4065509 -5.312248 0.30466 -4.388257 -1.521998 -1.07963 -1.460366 2 -32
3.768138 2.779051 2.88216 3.922253 2.869047 2.73963 2.923284 2.342105 1.350829 1.829372 1.354467 1.848711 1.238391 -0.4889018 1.202923 1.972469 -0.08551513 0.7155939 1.870304 1.293234 -2.169978 -1.479635 0.02976361 -0.6814504 0.03745258 -0.5841626 -1.051899 -0.007328185 -3.348489 0.0599546 -4.487703 -0.02506734 -3.417028 -0.08232832 -5.259125 0.1022988 -5.651552 -0.06629498 -4.958805 -2.112008 -1.209435 -1.965338 2 -28
3.662855 2.647198 2.893937 3.948282 2.818896 2.676219 2.848899 2.374274 1.527651 1.971002 1.513391 1.994258 1.445616 -0.6856043 1.119746 1.91302 -0.1443697 0.8072715 2.054345 1.470455 -2.444226 -1.271083 -0.2739251 -0.4580839 -0.2308137 -0.3206184 -1.191181 -0.2925066 -3.050472 -0.1925533 -4.103573 -0.2936635 -3.231701 -0.3476067 -5.014795 -0.1830571 -5.355833 -0.3539481 -4.865685 -2.325717 -1.208693 -1.847262 2 -24
3.078019 2.106546 2.517799 3.383549 2.585583 2.148773 2.56796 2.366255 1.267478 1.97432 1.23021 1.993065 1.249502 -0.6798392 1.05397 1.759916 -0.3337424 0.8136247 2.041181 1.223121 -2.442689 -0.8718749 -0.3846179 -0.155946 -0.3516853 -0.03908261 -1.059584 -0.4442427 -2.492745 -0.3023501 -3.680122 -0.3703348 -2.859394 -0.4637038 -4.271347 -0.3104098 -4.697054 -0.4830875 -4.341986 -2.271312 -0.9653927 -1.088029 2 -20
2.50613 1.577409 2.008591 2.680199 2.332232 1.41419 2.42582 2.315075 0.9937959 1.71102 0.9045126 1.755386 0.9894617 -0.5095178 1.020839 1.606491 -0.6013066 0.8574757 1.750983 0.9190776 -2.160715 -0.3272275 -0.5352471 0.2169345 -0.5504712 0.2979701 -0.6141435 -0.4484262 -1.732813 -0.5150853 -3.310554 -0.5312844 -2.541292 -0.6298857 -3.290647 -0.4848675 -3.971591 -0.6923966 -3.818499 -2.204505 -0.4632159 -0.3504579 2 -16
2.173011 1.294015 1.509848 2.049534 2.041486 0.7810972 2.381955 2.213108 0.96327 1.263207 0.8212357 1.333647 0.9050665 -0.3135921 0.9611104 1.506004 -0.7286565 0.9306014 1.277567 0.8145329 -1.712301 0.1606543 -0.8065819 0.6025462 -0.8845195 0.6634403 -0.09349702 -0.379182 -0.9089493 -0.8528759 -2.840866 -0.8583052 -2.239962 -0.9062198 -2.347389 -0.774682 -3.229498 -1.023337 -3.356652 -2.170846 0.1085421 -0.3278197 2 -12
1.885938 1.022297 1.055655 1.425685 1.575745 0.3227954 2.054063 2.068921 0.9875065 0.9421124 0.8392799 0.9961473 0.8974816 -0.2160747 0.8398224 1.388553 -0.5032842 0.9123102 0.9139248 0.7852747 -1.175524 0.4661546 -0.9991698 0.9282297 -1.126371 0.9811144 0.2698163 -0.2415255 -0.2038502 -1.082238 -2.248492 -1.098792 -1.875377 -1.106424 -1.611859 -0.9904884 -2.527339 -1.233074 -2.881179 -2.05188 0.5066008 -0.8918287 2 -8
1.442728 0.5838622 0.5305973 0.6207452 0.9074689 -0.09909045 1.23749 1.986716 0.8955737 1.055246 0.7844149 1.071356 0.8511919 -0.1873216 0.695047 1.111201 0.01876054 0.7715715 1.000661 0.6819172 -0.5862034 0.6656509 -1.024036 1.138099 -1.161367 1.181635 0.496774 -0.02275905 0.2640814 -1.119067 -1.714325 -1.129784 -1.5326 -1.119793 -1.10642 -1.030034 -2.006051 -1.220542 -2.455922 -1.859447 0.7568977 -1.374694 2 -4
0.8991883 0.07821948 -0.163045 -0.2544267 0.2017166 -0.5942883 0.1528232 1.984397 0.7329762 1.417357 0.6493801 1.406329 0.7499096 -0.09937815 0.6057612 0.6737069 0.4888228 0.6180763 1.351818 0.5332022 0.03676852 0.8938696 -0.948061 1.226653 -1.074195 1.248446 0.7688188 0.2493994 0.5106995 -1.034259 -1.456962 -1.036497 -1.29493 -1.004392 -0.7245483 -0.9569775 -1.645253 -1.067804 -2.064762 -1.608548 1.082989 -1.532365 2 0
0.4496921 -0.3228841 -0.7956412 -0.8196205 -0.2480627 -0.9750422 -0.6677224 1.930847 0.6288944 1.616454 0.5292326 1.575904 0.6331495 0.147706 0.6969227 0.3372118 0.7269931 0.5828173 1.533939 0.4577407 0.6981523 1.210514 -0.8970411 1.183135 -0.999729 1.177828 1.154913 0.4879775 0.5857769 -0.9599592 -1.61075 -0.9546324 -1.27468 -0.9276515 -0.4283531 -0.9108238 -1.455534 -0.9252706 -1.768223 -1.36948 1.534311 -1.569475 2 4
0.2704736 -0.5363268 -1.002789 -0.8836159 -0.2532256 -1.008345 -0.9008933 1.817886 0.6138216 1.675843 0.470145 1.605836 0.5405703 0.5601622 1.056478 0.3801416 0.9702377 0.6828983 1.59624 0.4713793 1.323646 1.565304 -1.009609 0.9235661 -1.058642 0.8871621 1.540008 0.592947 0.5430524 -1.05958 -2.114501 -1.036761 -1.572615 -1.043696 -0.3424614 -1.017688 -1.581491 -0.9623328 -1.78339 -1.362074 1.870281 -1.427784 2 8
0.356092 -0.5647081 -0.7929722 -0.5496621 0.1002069 -0.7150546 -0.7272289 1.761061 0.6386407 1.717941 0.4547946 1.65091 0.5075918 1.096101 1.623569 0.8280593 1.418094 0.8359053 1.678413 0.5062607 1.825768 1.859085 -1.318586 0.4050336 -1.328717 0.3448036 1.793311 0.5416636 0.4357235 -1.388296 -2.692153 -1.334357 -1.98807 -1.351527 -0.5207201 -1.304304 -1.865057 -1.24527 -1.965688 -1.63788 2.082099 -1.171126 2 12
0.4214551 -0.4711829 -0.6122139 -0.2575368 0.5650757 -0.2720643 -0.5128901 1.751631 0.5930558 1.603911 0.4024125 1.577094 0.4569104 1.789105 2.252947 1.440846 1.920833 1.067395 1.622138 0.4477696 2.222194 2.157223 -1.704292 -0.1965094 -1.726366 -0.2796553 1.925429 0.3852195 0.3104611 -1.806528 -3.100543 -1.719875 -2.270435 -1.719089 -0.7659844 -1.672726 -1.976063 -1.673265 -2.007309 -2.003203 2.655457 -0.8213388 2 16
0.2583886 -0.3664494 -0.7429123 -0.3702104 0.9625921 0.06044418 -0.3960158 1.582196 0.4066128 1.2668 0.2550599 1.28225 0.2817451 2.674795 2.864431 1.98017 2.255494 1.495814 1.328725 0.2343186 2.58867 2.632678 -2.050073 -0.6326947 -2.09301 -0.7445934 2.082468 0.2050965 0.2406466 -2.15945 -3.410458 -2.067062 -2.535924 -2.034935 -0.8877302 -2.009132 -2.008104 -2.081374 -2.08666 -2.298336 3.939365 0.0960082 2 20
0.1082422 -0.3136457 -0.8940603 -0.6819225 1.2956 0.12002 -0.2340066 1.215038 0.2252302 0.7961439 0.1164739 0.8236646 0.09412303 3.646824 3.464595 2.459038 2.390224 1.995953 0.8661178 0.02423565 3.006847 3.199159 -2.408413 -0.8712034 -2.460594 -0.9738581 2.342412 0.07843726 0.2023181 -2.504917 -3.767612 -2.446631 -2.918482 -2.354029 -0.9385297 -2.345793 -2.170982 -2.463149 -2.375218 -2.580442 5.578547 1.653892 2 24
0.1808712 -0.3060246 -0.8124675 -0.924848 1.614506 -0.03065365 0.02144775 0.9794643 0.1255792 0.4027001 0.03746671 0.4217871 -0.02194913 4.526715 4.011679 2.988629 2.454266 2.266361 0.4516751 -0.06941456 3.422229 3.53409 -2.795359 -1.042859 -2.855469 -1.128446 2.56667 0.03213683 0.05794066 -2.886093 -4.057855 -2.881324 -3.232472 -2.7238 -1.053871 -2.689929 -2.318102 -2.855543 -2.583883 -2.90267 6.842757 3.233881 2 28
0.2843701 -0.2263182 -0.7318788 -1.106583 1.932127 -0.3060276 0.2666759 1.084581 0.03989692 0.271594 -0.02319954 0.2954249 -0.1192252 5.208983 4.405189 3.589987 2.549075 2.246308 0.3118851 -0.1139979 3.659984 3.485284 -3.076465 -1.231771 -3.143408 -1.344885 2.579954 0.006238412 -0.2483738 -3.17424 -4.13925 -3.205651 -3.336694 -3.025547 -1.293156 -2.943006 -2.329906 -3.151045 -2.568283 -3.104893 7.361983 4.363408 2 32
0.2498297 -0.02769306 -0.8091493 -1.096237 2.273289 -0.6910318 0.5071377 1.318266 0.03111068 0.2819117 -0.004223217 0.3329726 -0.137497 5.676748 4.596952 4.178127 2.604595 2.073177 0.3574868 -0.09967959 3.683373 3.203365 -3.208656 -1.446337 -3.26539 -1.558644 2.401134 -0.02623775 -0.6558588 -3.312404 -4.118233 -3.329616 -3.324684 -3.174539 -1.600622 -3.100926 -2.301162 -3.28168 -2.447527 -3.105997 7.351221 5.003145 2 36
0.1502951 0.1232384 -0.9119686 -0.8460545 2.571743 -1.092213 0.7700716 1.391468 0.04730711 0.2549673 0.05786341 0.318008 -0.1134381 5.92503 4.569806 4.518473 2.458547 1.83871 0.3651718 -0.06158542 3.605251 2.926435 -3.197387 -1.643456 -3.206158 -1.697294 2.206944 0.03811529 -1.048297 -3.28804 -4.145751 -3.247465 -3.307384 -3.142681 -1.84134 -3.117749 -2.319479 -3.229845 -2.328972 -2.9816 7.246992 5.383739 2 40
0.1594561 0.2039159 -0.877961 -0.6159157 2.746387 -1.31781 1.118915 1.355212 -0.0862268 0.2421194 -0.001179608 0.2859896 -0.2050185 5.925757 4.371608 4.498864 2.078431 1.611953 0.3398478 -0.1576936 3.480423 2.72455 -2.983595 -1.770595 -2.939121 -1.773 2.100389 0.2350868 -1.335134 -3.04421 -4.22284 -2.964576 -3.352567 -2.891639 -2.006526 -2.872344 -2.499571 -2.967122 -2.435997 -2.824304 7.152032 5.513355 2 44
0.4209945 0.3550111 -0.6153821 -0.375157 2.846992 -1.279125 1.581123 1.460457 -0.4055128 0.3374898 -0.2670986 0.3774616 -0.471953 5.657383 4.092267 4.321259 1.615918 1.35282 0.4150597 -0.4823368 3.239784 2.401014 -2.536762 -1.874363 -2.468165 -1.857728 2.000984 0.4473559 -1.557012 -2.555904 -4.318277 -2.50457 -3.432523 -2.440383 -2.201444 -2.361246 -2.83151 -2.517592 -2.778363 -2.7222 6.782637 5.148742 2 48
0.8986834 0.5386937 -0.2425129 0.09803469 2.869988 -1.110341 1.925123 1.818225 -0.8463392 0.4838324 -0.6988115 0.5501161 -0.8967549 5.169441 3.70509 4.104373 1.203633 0.9056128 0.5569137 -0.989292 2.843571 1.776219 -1.875249 -2.059755 -1.781573 -2.06358 1.782156 0.5909689 -1.811941 -1.84973 -4.396471 -1.855209 -3.417725 -1.829457 -2.425525 -1.650989 -3.088732 -1.878665 -3.004359 -2.561253 6.025409 4.487698 2 52
1.404116 0.5972014 0.07269211 0.6420769 2.761317 -0.9897435 1.987573 2.391237 -1.183642 0.6268381 -1.066573 0.6938317 -1.261709 4.632824 3.183894 3.755252 0.8347399 0.2963156 0.6751388 -1.412443 2.381118 1.000812 -1.152876 -2.336557 -1.014564 -2.391012 1.440886 0.6739684 -2.134421 -1.106227 -4.418861 -1.128191 -3.29857 -1.165433 -2.635146 -0.9090345 -3.204996 -1.148809 -2.995981 -2.237851 5.260398 3.880276 2 56
1.775306 0.6227058 0.2147016 0.9180865 2.566629 -0.9283642 1.851548 2.91564 -1.266133 0.7958056 -1.198745 0.8309028 -1.368096 4.224857 2.623278 3.266699 0.399659 -0.2501238 0.8110029 -1.538617 1.956793 0.403344 -0.5903228 -2.584637 -0.4295577 -2.677366 1.156804 0.7206464 -2.437268 -0.5653061 -4.421718 -0.5719591 -3.197135 -0.6414438 -2.792677 -0.3550797 -3.300138 -0.5766103 -2.930742 -1.903155 5.022979 3.447216 2 60
1.86525 0.8459669 0.07711168 0.845635 2.386245 -0.9169924 1.708038 3.034637 -1.144479 0.9698525 -1.117723 1.009309 -1.243743 3.951131 2.125029 2.844308 -0.1540103 -0.5307857 0.9823676 -1.401327 1.597208 0.1301924 -0.2624646 -2.61836 -0.1351935 -2.717305 1.063811 0.7421639 -2.557839 -0.2765764 -4.42756 -0.2822808 -3.178739 -0.3759325 -2.84304 -0.06826676 -3.42801 -0.2792525 -2.99947 -1.68764 5.366668 3.101512 2 64
1.684214 1.087708 -0.1144278 0.6906667 2.303912 -1.080253 1.772064 2.824915 -0.8792175 1.087132 -0.8781828 1.166918 -0.9742393 3.692184 1.696661 2.726227 -0.696749 -0.5133963 1.109726 -1.123791 1.220576 -0.01531289 -0.1186404 -2.421249 -0.04202624 -2.527251 0.9738609 0.6856289 -2.503 -0.1257972 -4.34127 -0.1512133 -3.141069 -0.3069547 -2.817712 0.03321528 -3.496569 -0.1607692 -3.186823 -1.564488 5.865816 2.559432 2 68
1.590348 1.065602 -0.02975256 0.8104092 2.313375 -1.500619 2.015147 2.703626 -0.5981175 1.11131 -0.6144525 1.219491 -0.7100763 3.38015 1.258191 2.92252 -1.140933 -0.3498969 1.139201 -0.8745154 0.6996421 -0.2902624 -0.06228824 -2.266789 -0.001876029 -2.407505 0.6317369 0.435493 -2.467945 -0.01202215 -4.042855 -0.06744821 -2.914026 -0.2726695 -2.76045 0.1004263 -3.333208 -0.07416027 -3.186751 -1.424418 6.183473 1.822304 2 72
1.829835 0.9831933 0.2145187 1.219911 2.379715 -2.032485 2.278395 2.86978 -0.2737516 1.140782 -0.3127307 1.2683 -0.4241241 3.019138 0.7882811 3.245107 -1.563735 -0.1523235 1.190722 -0.5972769 0.07772154 -0.6406958 -0.08779261 -2.315312 -0.01291229 -2.472721 0.1246816 0.00230696 -2.550768 0.002750765 -3.634406 -0.08070388 -2.604345 -0.2724365 -2.718541 0.117874 -3.060645 -0.04931064 -3.003324 -1.291596 6.243737 1.154602 2 76
2.203512 1.130699 0.3178537 1.510901 2.480892 -2.413744 2.543529 3.170767 0.2363354 1.287399 0.1872776 1.437662 0.06276161 2.619427 0.3455181 3.441962 -1.994307 0.1231171 1.372856 -0.117957 -0.4111949 -0.8276185 -0.2294973 -2.383893 -0.1476446 -2.497002 -0.2390187 -0.365757 -2.648469 -0.144524 -3.347987 -0.2449272 -2.473638 -0.3972312 -2.760764 -0.002292958 -3.007724 -0.1733674 -3.040661 -1.316615 6.012369 0.700678 2 80
2.405108 1.419883 0.1334111 1.340194 2.477524 -2.607774 2.748255 3.339272 0.7580478 1.479913 0.7325324 1.644618 0.6014413 2.189107 -0.07707555 3.323931 -2.33299 0.4704267 1.573693 0.3856581 -0.6436101 -0.7939771 -0.3376516 -2.274365 -0.2909607 -2.314889 -0.3420265 -0.4321244 -2.5724 -0.2876015 -3.152867 -0.4052828 -2.454603 -0.5246837 -2.76122 -0.1201907 -3.073078 -0.322393 -3.316992 -1.461653 5.477467 0.4008737 2 84
2.289289 1.562672 -0.3074847 0.7947287 2.224738 -2.755687 2.746005 3.335116 0.9824073 1.690562 0.991552 1.838032 0.8527841 1.69945 -0.5226906 2.910315 -2.424851 0.6827264 1.742666 0.6034234 -0.7383658 -0.7496296 -0.2445064 -2.033989 -0.2568392 -2.055865 -0.3520252 -0.2339323 -2.282226 -0.2443026 -2.881805 -0.3660343 -2.280753 -0.4625998 -2.563002 -0.04694338 -2.883151 -0.3090763 -3.413561 -1.505492 4.755058 0.2129298 2 88
1.964687 1.374817 -0.6897368 0.276227 1.829727 -2.862175 2.577603 3.347435 0.8519312 1.94871 0.885733 2.053506 0.7431039 1.133318 -0.929032 2.41552 -2.17527 0.6078587 1.937812 0.4635474 -0.7934512 -0.851894 -0.001505982 -1.847219 -0.03626375 -1.931558 -0.4475242 0.04398591 -1.972736 -0.04066188 -2.527267 -0.1159514 -1.90964 -0.2164229 -2.324154 0.2059502 -2.440194 -0.1247834 -3.150963 -1.429388 3.917214 0.2393855 2 92
1.781551 0.9244163 -0.6865021 0.08578591 1.509908 -2.872359 2.400471 3.599419 0.5303282 2.158598 0.5730087 2.214337 0.4563358 0.5740479 -1.222103 2.047853 -1.720114 0.4274858 2.126433 0.1135439 -0.7437823 -0.9618987 0.2220605 -1.7621 0.2147406 -1.912182 -0.5738698 0.3101103 -1.792316 0.1978108 -2.227872 0.167435 -1.557309 0.05637948 -2.24748 0.4830887 -2.074837 0.08714457 -2.778595 -1.459358 3.03674 0.294073 2 96
1.884554 0.4875986 -0.4765577 0.1257834 1.281531 -2.776084 2.161604 4.063536 0.17039 2.252112 0.2135366 2.256099 0.1475539 0.08467623 -1.471105 1.733779 -1.335385 0.3961997 2.253606 -0.2359434 -0.5203191 -0.8402473 0.3388096 -1.644746 0.3652641 -1.825951 -0.5120858 0.6103589 -1.66389 0.381055 -2.126227 0.3163605 -1.388144 0.2342333 -2.209809 0.6608202 -1.926819 0.2357959 -2.488235 -1.567124 2.335544 0.0173505 2 100
2.055779 0.2603315 -0.4215012 0.2331137 1.061533 -2.611378 1.819774 4.28902 -0.009308382 2.291985 0.02823353 2.259345 -0.004004825 -0.3696445 -1.721291 1.285981 -1.093258 0.5131236 2.323724 -0.3327674 -0.1573125 -0.4234386 0.3331361 -1.431212 0.3660798 -1.623348 -0.1836792 0.9697365 -1.426375 0.4029972 -2.129534 0.2756583 -1.326291 0.2493228 -2.02481 0.6691904 -1.832314 0.2701334 -2.251052 -1.600048 1.890333 -0.8766477 2 104
2.09856 0.1470779 -0.4730842 0.3565353 0.832082 -2.556447 1.548988 4.034935 0.2678606 2.285005 0.2700219 2.238909 0.2459145 -0.7905431 -1.911654 0.801151 -0.8228115 0.6666714 2.326623 0.02105921 0.2308549 0.1017192 0.178609 -1.206946 0.203976 -1.350887 0.2084732 1.27876 -1.02035 0.1986432 -2.0295 0.0451065 -1.243518 0.05382414 -1.744402 0.4459266 -1.644484 0.1227722 -2.076833 -1.666111 1.583068 -2.256264 2 108
1.865655 -0.038713 -0.6012528 0.2867305 0.5324188 -2.811274 1.289195 3.530908 0.9039747 2.163534 0.8580151 2.132977 0.8328868 -1.081176 -2.068897 0.4651251 -0.4251064 0.8188902 2.233811 0.6553504 0.5512603 0.5191024 -0.03763853 -0.9897749 -0.005063859 -1.028205 0.4234942 1.453673 -0.5546345 -0.08092844 -1.793115 -0.2205602 -1.112465 -0.2218162 -1.471015 0.102396 -1.374798 -0.1126097 -1.995249 -1.800667 1.504974 -3.300032 2 112
1.33759 -0.3733656 -1.001982 -0.212662 0.1018436 -3.318023 0.7295 3.022351 1.435727 2.035846 1.377405 2.0431 1.348437 -1.133769 -2.264689 0.2301148 -0.06697431 0.9606277 2.137841 1.140286 0.7830163 0.8527957 -0.123429 -0.7591896 -0.0863072 -0.7324226 0.4771747 1.501516 -0.1515029 -0.2250102 -1.471012 -0.2905231 -0.9545144 -0.3552668 -1.187174 -0.07996869 -1.08391 -0.2303189 -1.972863 -1.863064 1.918737 -3.495877 2 116
0.722683 -0.744096 -1.550241 -1.031834 -0.3308209 -3.765969 0.02564565 2.533597 1.655991 1.916178 1.616258 1.950462 1.587908 -0.9506384 -2.430161 0.04187125 0.00958317 1.20195 2.002054 1.351315 0.931892 1.317465 -0.152601 -0.5016019 -0.1431113 -0.4981281 0.5653999 1.382686 0.2617286 -0.3252216 -1.083457 -0.2851104 -0.7865316 -0.4316301 -0.8304457 -0.1338877 -0.7584323 -0.2822903 -1.930837 -1.799424 2.739787 -3.068143 2 120
0.1686783 -0.8664049 -1.934641 -1.855179 -0.5403045 -3.908839 -0.1762643 1.947483 1.7273 1.582202 1.72095 1.628491 1.689698 -0.6324816 -2.432761 0.03812573 -0.1586769 1.702272 1.609135 1.46653 1.019336 2.000439 -0.4598963 -0.07783736 -0.4808771 -0.1267125 0.7848461 1.107839 0.8439223 -0.6803267 -0.5986872 -0.5839191 -0.5964488 -0.7436695 -0.3790838 -0.4263432 -0.3175358 -0.5818424 -1.784613 -1.718692 3.663025 -2.638455 2 124
-0.2516819 -0.6657212 -2.080786 -2.503228 -0.4755962 -3.699651 0.2875749 1.461215 1.660292 1.136176 1.699019 1.185023 1.660979 -0.2563857 -2.268793 0.3045024 -0.2687954 2.326592 1.105381 1.420643 1.032066 2.640016 -1.111219 0.4834002 -1.128682 0.3857609 1.016632 0.8030382 1.520154 -1.327333 0.03494133 -1.234426 -0.3728576 -1.31786 0.08247644 -1.033521 0.221577 -1.201535 -1.507192 -1.767266 4.548669 -2.543463 2 128
-0.4329647 -0.3629758 -2.044573 -2.710806 -0.2543853 -3.216922 0.9261332 1.364864 1.357402 0.8026773 1.436707 0.8509447 1.388426 0.1282524 -2.023442 0.72873 -0.1429048 2.774754 0.7535192 1.064108 0.8996114 2.935585 -1.810812 0.8760172 -1.806969 0.7131811 1.060078 0.5249012 2.006389 -1.99546 0.7519807 -1.922239 -0.1343572 -1.930343 0.4001031 -1.689668 0.7210022 -1.856825 -1.112702 -1.897043 5.156601 -2.276417 2 132
