Fp1 Fp2 AF3 AF4 Fz F3 F4 F7 F8 FC5 FC6 FT7 FT8 Cz FC1 FC2 C3 C4 T7 T8 A1 A2 CP1 CP2 CP5 CP6 TP7 TP8 Pz P3 P4 P7 P8 PO9 PO10 PO3 PO4 PO7 PO8 O1 O2 Oz ID time
4.769051 3.439759 3.617052 3.336609 4.669148 5.761164 3.859253 0.6681185 -1.489837 1.284392 -1.361878 -1.388161 -1.371 3.665505 5.364925 6.253598 1.90596 2.59746 -3.239957 -4.269924 0.8887886 2.467895 -1.031914 -1.437061 -3.250087 -4.834176 3.005139 -2.345059 -1.032643 -3.793355 -2.905113 -6.404341 -4.470634 -4.152791 -4.231206 -5.583972 -4.398414 -6.486452 -4.068369 -6.704124 1.635176 21.06147 1 -168
5.195127 3.54445 3.26291 3.492369 4.807212 5.386847 3.878585 0.5495764 -1.893685 1.700782 -1.07613 -2.227781 -1.039191 3.649583 5.45059 6.178566 2.131323 2.528563 -3.645635 -3.614484 0.9369951 2.370414 -0.7262736 -1.567487 -3.086749 -5.330729 2.883374 -2.286458 -1.222992 -3.510966 -3.444402 -6.581286 -4.889845 -4.128637 -4.59447 -5.546821 -4.782788 -6.52789 -4.468477 -6.931137 1.329816 23.84711 1 -164
5.821631 3.584202 3.07256 3.560004 4.946342 4.594274 3.845075 0.6039126 -2.170824 2.315164 -0.8639871 -2.562845 -0.7960128 3.658483 5.439646 5.976553 2.493098 2.486681 -3.476662 -2.654851 1.119206 2.308633 -0.3022045 -1.507145 -2.84883 -5.402158 2.760346 -2.159623 -1.331594 -3.090929 -3.718787 -6.363847 -5.142889 -4.106653 -4.779803 -5.420603 -4.99155 -6.316781 -4.693386 -7.064568 0.9970577 22.18371 1 -160
5.771788 3.421098 2.939958 3.409611 4.973439 3.79411 3.655239 0.6838415 -2.274622 3.052747 -0.7389811 -2.299117 -0.6739113 3.656268 5.446711 5.717559 2.810447 2.382649 -2.806818 -1.935287 1.256776 2.273786 0.1649143 -1.42405 -2.430269 -5.214027 2.67393 -1.957886 -1.362631 -2.670876 -3.797752 -5.92602 -5.138872 -3.904895 -4.744275 -5.226243 -4.94144 -6.052688 -4.700682 -6.938103 0.7849523 18.28962 1 -156
5.161974 3.074014 2.618453 3.076069 4.772104 3.526734 3.304369 0.5286246 -2.177663 3.449354 -0.7797703 -1.954711 -0.7458038 3.567474 5.394038 5.376533 2.810255 2.114477 -2.603337 -1.947139 1.173981 2.169158 0.303735 -1.449352 -2.456722 -4.941577 2.630485 -1.84345 -1.373872 -2.535309 -3.772998 -5.767868 -4.842782 -3.570892 -4.497994 -5.078845 -4.634502 -5.896019 -4.49755 -6.549089 0.9021197 17.96324 1 -152
4.843554 2.72921 2.244066 2.731655 4.364434 3.87639 2.915415 0.2744449 -1.998263 3.152219 -1.009007 -1.917478 -1.001278 3.416731 5.091822 4.92058 2.483632 1.728937 -3.292577 -2.776986 0.9897989 2.016351 -0.04021509 -1.569911 -3.25459 -4.564631 2.65782 -1.86884 -1.367091 -2.727356 -3.626001 -5.986565 -4.348969 -3.288595 -4.092487 -5.044068 -4.169975 -5.735291 -4.096223 -6.016643 1.145146 22.21091 1 -148
4.755523 2.450149 2.25961 2.394376 3.800997 4.317687 2.521829 0.2728847 -1.832617 2.255761 -1.250277 -2.140137 -1.246327 3.309464 4.502726 4.369546 2.076102 1.408733 -4.167253 -3.902225 0.9308844 1.912058 -0.5170079 -1.68454 -4.038059 -4.206236 2.761254 -1.886648 -1.294241 -2.858489 -3.401795 -6.089587 -3.822955 -3.108035 -3.595615 -4.960905 -3.675788 -5.318398 -3.573386 -5.44062 1.215557 26.49607 1 -144
4.761455 2.179043 2.616259 2.016959 3.216548 4.307467 2.105882 0.5927484 -1.64808 1.131316 -1.404659 -2.096627 -1.412358 3.245062 3.798265 3.77377 1.735461 1.234332 -4.378012 -4.641434 1.002833 1.867074 -0.7861558 -1.738424 -4.072978 -4.021365 2.858961 -1.805678 -1.168349 -2.709679 -3.211529 -5.768661 -3.367764 -2.929417 -3.094243 -4.709211 -3.237962 -4.686514 -3.074694 -4.876603 1.071406 27.32554 1 -140
4.762753 1.820651 2.745804 1.587309 2.72391 3.732873 1.674078 0.864834 -1.403756 0.2078809 -1.514799 -1.579423 -1.563156 3.112732 3.160915 3.221397 1.443264 1.102589 -4.008058 -4.823191 1.081522 1.858016 -0.8302669 -1.746933 -3.648206 -4.003793 2.910879 -1.641321 -1.027294 -2.498706 -3.082632 -5.293898 -2.946435 -2.61831 -2.659711 -4.393291 -2.839812 -4.114931 -2.658578 -4.255404 0.9587189 26.18173 1 -136
3.968416 1.315234 2.488873 1.073763 2.231362 2.830967 1.199983 0.7081009 -1.040245 -0.3790941 -1.553127 -1.157186 -1.64396 2.851133 2.648436 2.77673 1.158487 0.9630592 -3.828633 -4.673908 1.094942 1.899451 -0.8301062 -1.648813 -3.492863 -3.976301 2.973538 -1.404857 -0.8252379 -2.460617 -2.913911 -5.016369 -2.454518 -2.149768 -2.247745 -4.127785 -2.3959 -3.717454 -2.24694 -3.478648 1.205869 26.27566 1 -132
2.35781 0.7976715 2.188024 0.5627832 1.605847 1.956549 0.7256396 0.3350907 -0.5357127 -0.8374605 -1.4614 -1.155443 -1.569832 2.494229 2.142635 2.35809 0.8691391 0.8725407 -4.06184 -4.337631 1.036641 1.952913 -0.9311888 -1.368754 -3.744161 -3.71813 3.060007 -1.16088 -0.5282224 -2.561824 -2.616102 -4.87355 -1.895456 -1.677085 -1.783678 -3.893368 -1.896053 -3.360621 -1.759816 -2.649263 1.65641 27.40544 1 -128
1.02178 0.4680424 1.928787 0.231696 0.809476 1.260452 0.3232058 0.1530487 -0.05320278 -1.267752 -1.199309 -1.249428 -1.309579 2.082133 1.465396 1.792074 0.5949587 0.8197678 -4.170998 -3.740004 0.9829239 1.930628 -1.047099 -0.9350813 -3.92691 -3.171726 3.152497 -0.9837946 -0.192648 -2.592908 -2.15514 -4.544663 -1.302356 -1.351364 -1.238153 -3.636927 -1.35365 -2.863384 -1.164535 -1.956329 1.847361 26.54279 1 -124
0.5383831 0.3501706 1.563581 0.1118666 -0.0517753 0.655681 -0.005851144 0.06129536 0.2422523 -1.732343 -0.7290777 -1.216504 -0.8469366 1.584361 0.6283264 1.07133 0.3037443 0.7454059 -3.884847 -2.774715 0.9231882 1.771124 -1.034182 -0.4350178 -3.748325 -2.443496 3.206214 -0.8963284 0.09261343 -2.448634 -1.559352 -3.961537 -0.6722553 -1.183343 -0.6231131 -3.363094 -0.7565766 -2.257371 -0.5162259 -1.45056 1.74202 22.99989 1 -120
0.4576562 0.3199413 1.13434 0.08850124 -0.7060316 0.1491735 -0.2428439 -0.1617695 0.323866 -2.225627 -0.1728036 -1.056599 -0.3071442 0.9957418 -0.04517123 0.461615 -0.03949619 0.6717246 -3.435795 -1.686184 0.7112129 1.507598 -0.9355089 -0.005123214 -3.343438 -1.767876 3.082899 -0.9067088 0.274177 -2.276314 -1.007297 -3.411562 -0.1090728 -1.082276 -0.05763929 -3.148067 -0.1857267 -1.789178 0.04541021 -1.058545 1.482919 19.45702 1 -116
0.1147206 0.2971734 0.6843362 0.09915412 -0.9509771 -0.05305936 -0.3209639 -0.4319368 0.248551 -2.44184 0.1821433 -0.8820288 0.02132067 0.4314502 -0.2577367 0.1993983 -0.3714792 0.6367971 -3.107757 -0.9669252 0.3439879 1.249742 -0.8939986 0.2557811 -2.958068 -1.342048 2.728377 -0.972003 0.336189 -2.243604 -0.649983 -3.140661 0.2690894 -0.9508696 0.3101781 -3.042494 0.2287626 -1.607001 0.4165791 -0.7244844 1.10624 18.14991 1 -112
-0.4646613 0.3008106 0.191727 0.1579188 -0.9080591 0.1083507 -0.2193497 -0.6169042 0.1591568 -2.173856 0.2716973 -1.020881 0.09213385 -0.009535074 -0.2186082 0.1658421 -0.6324565 0.6197518 -3.002998 -0.7017382 -0.04008163 1.017358 -0.9371891 0.3938615 -2.627695 -1.009692 2.266361 -1.043957 0.2876211 -2.255952 -0.3949485 -3.037979 0.5000371 -0.8288916 0.4806699 -2.975348 0.4760035 -1.569534 0.6032844 -0.4808447 0.7864971 18.29212 1 -108
-0.6540638 0.3411039 -0.1954258 0.2388248 -0.8271502 0.3404434 -0.02649704 -0.6586801 0.1252278 -1.592064 0.3650606 -1.487897 0.2187023 -0.3391292 -0.3390808 0.09381234 -0.8226612 0.6325833 -2.973134 -0.5371529 -0.3654769 0.7357718 -0.9712692 0.5099502 -2.27389 -0.5258806 1.7769 -1.143735 0.1615831 -2.158419 -0.085076 -2.87948 0.6610458 -0.8729433 0.5759082 -2.88696 0.6451774 -1.487725 0.6922769 -0.424417 0.5589109 17.85486 1 -104
-0.08580121 0.379228 -0.3772749 0.2944788 -0.751215 0.3883193 0.157605 -0.5873507 0.1055617 -0.9876913 0.5660517 -1.792314 0.497312 -0.5770186 -0.6148756 -0.02239665 -0.9539202 0.6785061 -2.84452 -0.3274863 -0.6203066 0.4010983 -0.9659401 0.6052573 -1.993909 0.01565105 1.252409 -1.268313 -0.009716744 -2.014977 0.2604127 -2.682327 0.7476902 -1.096388 0.6560609 -2.806743 0.7617309 -1.385896 0.7406347 -0.5873803 0.2825263 16.56315 1 -100
0.8517674 0.3533153 -0.4918419 0.2935561 -0.6067851 0.3641725 0.3101574 -0.5585042 0.0653584 -0.4942401 0.6774164 -1.772264 0.670343 -0.7236674 -0.7442178 -0.01485454 -1.036968 0.6791244 -2.638035 -0.2207558 -0.8218381 0.1166734 -0.9763681 0.6105121 -1.811149 0.383106 0.7623771 -1.342521 -0.1554247 -1.913433 0.5307011 -2.547596 0.7405933 -1.278294 0.6718318 -2.715375 0.7849666 -1.390238 0.7348068 -0.7788768 0.009554668 15.42293 1 -96
1.498763 0.2528192 -0.6062017 0.2357507 -0.386352 0.5229152 0.4427805 -0.6182489 -0.09316683 -0.1655324 0.587903 -1.856739 0.5879765 -0.8044203 -0.5871252 0.1458897 -1.073277 0.6292039 -2.535443 -0.2479226 -1.00418 -0.02963566 -0.990379 0.5221664 -1.593093 0.3736911 0.4134877 -1.324067 -0.1882108 -1.821307 0.6407605 -2.455688 0.6483876 -1.228067 0.5855107 -2.517261 0.7030507 -1.471054 0.6658159 -0.7604123 -0.2452675 15.14621 1 -92
1.595704 0.191131 -0.6395983 0.2180221 -0.1570362 0.828714 0.5905192 -0.6502966 -0.3983563 -0.03783204 0.4535858 -2.070006 0.4316314 -0.8176718 -0.3244074 0.3366445 -1.037319 0.6346914 -2.483263 -0.240445 -1.125925 -0.04356985 -0.9431792 0.4336127 -1.359341 -0.03182676 0.2418218 -1.231628 -0.08325566 -1.681358 0.585233 -2.259984 0.4939356 -1.018218 0.4306734 -2.170442 0.5437451 -1.389806 0.5689841 -0.5536746 -0.5553537 14.72514 1 -88
1.334102 0.2648702 -0.5334561 0.316765 -0.01199092 0.8688727 0.7340925 -0.5206699 -0.6232602 0.03646591 0.5219262 -1.691375 0.4837912 -0.7514713 -0.2235459 0.4318138 -0.908075 0.7656984 -1.942126 0.09095442 -1.093659 0.02329352 -0.8465092 0.4807399 -1.103862 -0.4181865 0.2147708 -1.094456 0.1382967 -1.419078 0.5248446 -1.743689 0.3354654 -0.8469498 0.2909766 -1.735443 0.3864439 -1.028851 0.4780469 -0.3691952 -0.8338569 11.0174 1 -84
0.9934614 0.3471388 -0.3618904 0.3967026 -0.01866287 0.2123587 0.7149905 -0.2906527 -0.52303 0.1954833 0.7883377 -0.5771698 0.7309369 -0.6576325 -0.3319726 0.40864 -0.736065 1.006837 -0.7501106 0.8124554 -0.9100757 0.168471 -0.7613192 0.7111334 -0.7374369 -0.3735473 0.3106554 -0.9244681 0.4512845 -1.006677 0.6391038 -0.8721045 0.2971189 -0.713141 0.2815916 -1.224787 0.3487877 -0.5263086 0.4429908 -0.2261824 -0.8558559 3.120549 1 -80
0.5431437 0.1989704 -0.2790269 0.2310777 -0.2159611 -1.042479 0.4358429 -0.2718865 -0.139547 0.241529 1.003846 0.2749536 0.9184177 -0.5950799 -0.5202659 0.3439222 -0.6607943 1.259378 0.2455166 1.511206 -0.6888203 0.4256453 -0.7579353 1.044886 -0.4792583 0.02391568 0.5307493 -0.7291191 0.8167672 -0.6079901 0.9448116 0.0218552 0.498621 -0.4430684 0.4856334 -0.6274199 0.5085177 -0.028194 0.5611851 0.0986034 -0.4288855 -4.653211 1 -76
-0.09653757 -0.1269933 -0.2479195 -0.1181243 -0.4911506 -2.055521 0.08689466 -0.527288 0.2840899 -0.08832648 1.064824 0.2505633 0.9542871 -0.5522136 -0.655017 0.338261 -0.7802289 1.394185 0.2801664 1.833944 -0.5751158 0.6969983 -0.9321504 1.371838 -0.7036035 0.4599419 0.7190275 -0.6058931 1.100641 -0.4812918 1.302912 0.4842528 0.826614 -0.09434763 0.7829246 -0.1423973 0.7691107 0.3229603 0.7755529 0.5631983 0.3180339 -7.707098 1 -72
-0.6766366 -0.2446709 -0.1696277 -0.2577765 -0.6107431 -2.173361 -0.02570944 -0.7625605 0.5799728 -0.6061476 1.11161 -0.0664534 1.009319 -0.4803385 -0.6734035 0.4083118 -0.9824569 1.386109 -0.2412562 1.835368 -0.6144075 0.7857544 -1.259104 1.560211 -1.262048 0.8444283 0.6430426 -0.6562614 1.153295 -0.5830325 1.540086 0.4945025 0.9782469 0.0436516 0.9034871 0.05323917 0.882634 0.4311776 0.8400175 0.8031597 0.9922936 -6.933916 1 -68
-0.9144531 0.001344643 -0.1065386 -0.02276707 -0.5082339 -1.676269 0.1310292 -0.7481632 0.7405131 -0.7952991 1.197148 -0.1534833 1.160154 -0.384209 -0.631851 0.4378576 -1.067832 1.290892 -0.5112501 1.68268 -0.6949947 0.6205851 -1.542729 1.533421 -1.503203 1.232933 0.28524 -0.8079785 0.9747105 -0.5816531 1.593899 0.4124379 0.821529 -0.113489 0.7527006 0.07024232 0.7227721 0.3725417 0.6377531 0.6372002 1.264632 -5.809804 1 -64
-0.7463532 0.3479106 -0.2121266 0.3348671 -0.3142857 -1.006159 0.3010452 -0.4586281 0.7865397 -0.4874358 1.10807 -0.2206326 1.139599 -0.3087186 -0.5927303 0.3114597 -0.9954258 1.056753 -0.5316725 1.30252 -0.7049525 0.2952471 -1.630718 1.289347 -1.172353 1.327831 -0.168917 -0.9292326 0.6648639 -0.3897524 1.397867 0.2858815 0.4514032 -0.3900263 0.4044029 0.03671698 0.3626746 0.2184096 0.2558501 0.1961326 1.041425 -3.656716 1 -60
-0.2267217 0.5647395 -0.4972512 0.5852522 -0.111252 -0.2819279 0.3034172 0.02537576 0.5668535 -0.09321654 0.6969402 -0.4348871 0.7313706 -0.2276604 -0.4431214 0.119017 -0.8542002 0.6270474 -0.6626068 0.4090914 -0.6127264 0.002997014 -1.481995 0.7935625 -0.5907071 0.7689812 -0.4858315 -0.91054 0.3569741 -0.1663673 0.8686786 0.006563915 0.01154197 -0.5510493 -0.03139249 0.03782463 -0.05690646 0.02610261 -0.1621357 -0.2048774 0.3881703 1.197021 1 -56
0.1552346 0.5759831 -0.636961 0.6204873 0.1326509 0.2827583 0.1701897 0.4779308 0.06600422 0.04112218 0.1514079 -0.5334216 0.1524238 -0.04317175 -0.06403284 0.08637305 -0.6861913 0.1905888 -0.6505767 -0.7740248 -0.4225428 -0.08740718 -1.10497 0.1828395 0.06101979 -0.08005594 -0.5486748 -0.6476325 0.1656009 0.09051321 0.2019932 -0.122246 -0.3522969 -0.4127453 -0.3713758 0.2366085 -0.3843576 -0.06246873 -0.4654747 -0.304827 -0.3395513 5.053344 1 -52
-0.2759288 0.3864045 -0.4470603 0.4225425 0.403541 0.495625 0.03599147 0.6333826 -0.2970143 -0.003122319 -0.2856006 -0.3829344 -0.286045 0.2515354 0.3927237 0.2038452 -0.4655148 -0.090115 -0.2154812 -1.487991 -0.1674783 -0.03598679 -0.5803697 -0.2804537 0.8121334 -0.5691712 -0.4707145 -0.2126573 0.03575117 0.4599735 -0.3147867 0.1093484 -0.566366 -0.06892249 -0.5395838 0.6076365 -0.5776578 -0.01141742 -0.6087656 -0.2281398 -0.5692182 4.787896 1 -48
-1.026719 0.1699272 -0.1633109 0.1829496 0.6483534 0.5167384 0.01399326 0.6104 -0.2576844 -0.0292718 -0.5503218 -0.2350083 -0.5196523 0.4984222 0.6548588 0.2311029 -0.2156538 -0.3363854 0.2467551 -1.402459 0.07925203 -0.07715832 -0.06045764 -0.5840101 1.471307 -0.6610694 -0.4780338 0.1324002 -0.2023413 0.8387516 -0.7082461 0.3532048 -0.7475681 0.1287077 -0.7005398 0.8749743 -0.7728503 0.02277835 -0.7440051 -0.3404101 -0.3475367 3.485906 1 -44
-1.000614 0.01354077 0.1534685 0.001893287 0.8449745 0.5035382 0.0333612 0.6833286 -0.0221647 0.1462581 -0.6577814 -0.0605506 -0.5956951 0.6144076 0.6777342 0.1338871 0.03137524 -0.6074842 0.5642774 -0.7463247 0.2742724 -0.241999 0.3726516 -0.7787629 1.75736 -0.5872751 -0.6084902 0.3022067 -0.4956639 1.10328 -1.021445 0.4545404 -0.9578128 0.1032941 -0.893243 0.9812631 -0.9885735 -0.04185107 -0.9244824 -0.6494327 -0.1553299 2.284024 1 -40
-0.4344784 -0.274002 0.6404497 -0.3207546 0.903012 0.2869251 -0.1368391 0.6851787 0.1566027 0.3712371 -0.7005551 0.3762735 -0.6370513 0.7074772 0.6052122 0.07651672 0.2930139 -0.7676018 1.086381 0.01047942 0.49965 -0.281663 0.8231692 -0.8029711 1.739463 -0.3238839 -0.6082301 0.547577 -0.5563834 1.310995 -1.063825 0.7758407 -0.9644446 0.2389461 -0.8553663 1.202859 -0.9723168 2.767688e-05 -0.9029233 -0.6980457 0.04804021 -2.084019 1 -36
-0.362048 -0.7211072 1.02117 -0.7962137 0.696885 -0.1859703 -0.5546182 0.3406889 0.1952602 0.2235264 -0.8601833 0.8689225 -0.8346661 0.8289722 0.4952661 0.06710705 0.5561512 -0.8255716 1.765573 0.227468 0.8041576 -0.1008823 1.388178 -0.7537467 1.812484 0.02876269 -0.3188777 1.018258 -0.3314348 1.542905 -0.8323071 1.349952 -0.6605086 0.7107357 -0.5258437 1.590277 -0.6316288 0.3047562 -0.5868325 -0.2856339 0.4788232 -8.148227 1 -32
-0.744849 -0.9789386 0.9755014 -1.047998 0.2939123 -0.537093 -0.9352513 -0.08134454 0.1203996 -0.2312496 -1.173352 1.099654 -1.166386 0.8994421 0.3496616 -0.02701765 0.8072946 -0.9453565 2.174807 -0.2675641 1.068547 0.06652451 1.914547 -0.8125387 2.09961 0.1536036 0.04578395 1.461178 -0.1301987 1.733421 -0.6427094 1.728796 -0.3374558 1.141777 -0.2111287 1.825846 -0.2682238 0.6767929 -0.273814 0.2172887 0.8431646 -10.885 1 -28
-0.8361793 -0.8400134 0.7283129 -0.8868911 -0.05423863 -0.5025217 -1.015006 -0.1506014 0.0640692 -0.6003302 -1.381993 1.089627 -1.342605 0.8603535 0.19657 -0.2717828 1.052405 -1.120978 2.084403 -0.7631385 1.213254 0.03012198 2.117336 -0.9330702 2.129263 0.01566484 0.2110146 1.601631 -0.1705525 1.735703 -0.6971 1.683333 -0.2504003 1.215009 -0.1332126 1.740692 -0.1723361 0.8973103 -0.2033312 0.4397441 0.826725 -9.606213 1 -24
-0.6198744 -0.4845679 0.5858448 -0.5147253 -0.1551874 -0.1469626 -0.8330988 0.1004418 0.04401718 -0.621933 -1.279568 1.140014 -1.216905 0.7302707 0.1199616 -0.5814623 1.327471 -1.252524 1.688268 -0.7389044 1.304828 -0.1424981 1.971012 -1.022713 1.545941 -0.1983868 0.1388173 1.531879 -0.3668649 1.504502 -0.9066873 1.372775 -0.34529 1.055649 -0.2491144 1.468815 -0.3031438 0.9496484 -0.304518 0.4140354 0.480437 -7.189775 1 -20
-0.4899001 -0.1518408 0.5555563 -0.1593215 -0.02092635 0.4564252 -0.5491871 0.467387 -0.1115356 -0.1192466 -0.9887259 1.509956 -0.9468855 0.5714385 0.2728162 -0.7750906 1.676638 -1.361291 1.456053 -0.5355585 1.354082 -0.3526619 1.732852 -1.141738 0.7021128 -0.4327109 -0.08116818 1.489079 -0.585485 1.125311 -1.112051 1.052205 -0.4583434 0.9184366 -0.4040544 1.177562 -0.4426181 0.8736885 -0.4080994 0.4158583 -0.1188276 -6.060247 1 -16
-0.3690213 -0.008895013 0.5370396 0.02016553 0.1569317 1.06956 -0.2954947 0.7700161 -0.3519537 0.7773265 -0.7282963 1.965264 -0.7106788 0.4387318 0.6362011 -0.7924114 2.024612 -1.435741 1.551262 -0.4612256 1.286523 -0.5622365 1.567863 -1.251872 0.130308 -0.6179858 -0.3633059 1.524667 -0.7517033 0.7201695 -1.210132 0.8774218 -0.4701456 0.9021702 -0.460342 0.9477176 -0.450289 0.7609209 -0.4223417 0.5918734 -0.698666 -6.844038 1 -12
0.2815959 -0.08367453 0.4178729 -0.01046605 0.205326 1.393896 -0.126128 0.7865331 -0.4697091 1.538548 -0.6437882 1.910105 -0.6081069 0.3257166 0.9594162 -0.7686886 2.267575 -1.432656 1.573923 -0.5573971 1.141158 -0.7392226 1.484135 -1.310851 -0.0304851 -0.6748129 -0.6644555 1.55608 -0.8544134 0.3899247 -1.22903 0.7524953 -0.3904691 0.937077 -0.4322619 0.7276552 -0.384386 0.7270889 -0.3708161 0.7898323 -0.8969637 -7.487183 1 -8
1.652343 -0.1326178 0.1548716 -0.01947325 0.1284343 1.417446 0.009422885 0.6455322 -0.4878211 1.789378 -0.678902 1.361905 -0.6028848 0.1965054 1.046145 -0.8269453 2.417386 -1.423308 1.288954 -0.9449682 1.031301 -0.9384891 1.462378 -1.466799 0.07944366 -0.6595988 -0.9724985 1.519812 -0.9765348 0.1114659 -1.292981 0.4682269 -0.3500472 0.8592499 -0.4383351 0.3599375 -0.3691472 0.7518817 -0.3240975 0.8201625 -0.9285143 -5.738138 1 -4
2.707932 -0.02496234 -0.06192943 0.0997016 0.0006635108 1.151899 0.08223566 0.6546153 -0.5849933 1.542614 -0.6787352 0.869893 -0.5902661 0.1056667 0.959594 -0.9402118 2.528368 -1.44457 1.001576 -1.589425 1.033083 -1.106519 1.494866 -1.70874 0.307126 -0.5902849 -1.127413 1.483272 -1.047781 -0.1539462 -1.330132 0.1879889 -0.2791952 0.6869543 -0.3655622 -0.04514083 -0.2846322 0.8645647 -0.1623077 0.8480391 -1.166695 -3.327171 1 0
2.19912 0.005573964 0.02601948 0.09677102 -0.1847245 0.7367018 -0.02749001 0.8159904 -0.7947085 0.9601368 -0.7611492 0.5450316 -0.6788162 0.1331445 0.9024727 -1.01503 2.565112 -1.455494 0.8558109 -2.243099 1.162976 -1.020783 1.54534 -1.815033 0.4719088 -0.5127671 -0.9471684 1.556518 -0.8788187 -0.3698513 -1.168694 0.2108763 0.02936433 0.6983707 -0.003367034 -0.1629656 0.05992762 1.178346 0.2802117 1.205095 -1.492914 -2.708008 1 4
0.5192463 -0.1670579 0.2873268 -0.1253591 -0.4631947 0.5113518 -0.2552589 0.9416322 -0.887463 0.3202523 -1.013217 0.2348195 -0.9250036 0.2070671 0.8957376 -1.023507 2.417444 -1.451646 0.7104937 -2.500754 1.295682 -0.7384622 1.517884 -1.668396 0.5242071 -0.5179007 -0.611786 1.669372 -0.5565076 -0.5839466 -0.8720245 0.3857774 0.4669798 0.9373006 0.4910642 -0.05025846 0.5204265 1.526757 0.809461 1.790471 -1.574636 -2.994286 1 8
-0.8409618 -0.4067233 0.3181548 -0.3841247 -0.7753303 0.3154432 -0.4262423 0.7442549 -0.6801319 -0.2225711 -1.20487 -0.351339 -1.102443 0.1701503 0.7697205 -1.004425 2.095288 -1.405392 0.4628427 -2.019449 1.290711 -0.5593142 1.416206 -1.300018 0.736308 -0.5370483 -0.4639093 1.684293 -0.3248686 -0.7761393 -0.5654216 0.465092 0.8146012 1.118288 0.8409228 0.02620792 0.8531996 1.69531 1.156245 2.195301 -1.17412 -2.643688 1 12
-1.259528 -0.6444572 0.116435 -0.6088946 -1.026425 -0.2101049 -0.5155224 0.1160012 -0.3154623 -0.6533591 -1.130158 -1.252396 -1.01849 -0.0101456 0.4548398 -0.9687143 1.777611 -1.270282 0.2046495 -0.8981907 1.183556 -0.5636578 1.364278 -0.7937688 1.12218 -0.3746193 -0.5442992 1.608301 -0.2137835 -0.7614947 -0.1760273 0.5953001 1.125464 1.115941 1.087661 0.08771003 1.106466 1.811374 1.406829 2.287838 -0.3733149 -2.989369 1 16
-1.33308 -0.8731546 0.04540052 -0.8240032 -1.187846 -0.7518223 -0.5701701 -0.6239722 -0.05755365 -0.8275503 -0.790019 -1.734297 -0.6858646 -0.1794458 0.08242066 -0.8799176 1.598372 -1.071117 0.1571302 0.3539117 1.077661 -0.5894659 1.345791 -0.245965 1.07738 0.1161568 -0.6291754 1.526154 -0.08859661 -0.5589009 0.3537439 0.934668 1.467744 1.066144 1.364754 0.2495754 1.419217 2.007231 1.701006 2.241954 0.4252942 -6.109831 1 20
-1.749693 -0.9694872 0.2089866 -0.9140601 -1.198229 -0.7994945 -0.5506536 -0.9969828 -0.04982021 -0.6134747 -0.379209 -1.326157 -0.284988 -0.1994591 -0.09459458 -0.6810358 1.555567 -0.8813638 0.2510194 0.9900587 1.010614 -0.5018541 1.234328 0.1403787 0.246034 0.6301324 -0.5936582 1.484797 0.06132271 -0.4433999 0.7809727 1.218377 1.688616 1.07404 1.57313 0.429622 1.668983 2.108437 1.90035 2.182033 0.7750846 -9.985308 1 24
-2.503235 -0.8963978 0.3744015 -0.8239073 -1.002698 -0.4640769 -0.4191242 -0.8322329 -0.330422 -0.1198455 -0.1625711 -0.5005925 -0.06907468 -0.0924385 0.07685535 -0.357409 1.604182 -0.7472101 0.2808691 0.6035982 0.9956231 -0.3129201 1.075862 0.1914456 -0.8373018 0.614228 -0.5077868 1.50749 0.1440966 -0.5152996 0.8866954 1.206297 1.726327 1.118303 1.629659 0.5130338 1.721219 1.996167 1.927868 2.120563 0.4643309 -11.28462 1 28
-2.822068 -0.8208494 0.2786578 -0.7115759 -0.7373058 -0.226749 -0.2434272 -0.5164766 -0.8363978 0.2426448 -0.2333392 -0.009398439 -0.1635144 0.06530374 0.3662867 -0.02688885 1.647517 -0.6481575 0.1474983 -0.2859337 1.015676 -0.1298468 0.9578848 0.03125637 -1.517001 0.09867274 -0.4389017 1.540396 0.1659015 -0.5842089 0.8273509 1.043038 1.720356 1.144903 1.647399 0.5352473 1.69562 1.858535 1.940828 2.070704 -0.1892546 -9.900391 1 32
-1.969201 -0.7640929 -0.1893567 -0.5972364 -0.5634819 -0.2364854 -0.05789588 -0.407909 -1.362471 0.2489788 -0.4861402 0.02978895 -0.453706 0.2038343 0.4292557 0.1605775 1.606493 -0.5546405 -0.06878801 -0.9486797 1.032785 -0.07038286 0.8809607 -0.1498916 -1.716525 -0.4216463 -0.3810234 1.468181 0.1476491 -0.4877477 0.7805794 0.9422392 1.712866 1.092019 1.649224 0.5899097 1.670745 1.833241 1.975675 1.972221 -0.7010355 -7.838923 1 36
-0.498206 -0.6304343 -0.8172319 -0.3959424 -0.4492306 -0.2829561 0.141118 -0.4054309 -1.701826 0.1316006 -0.870035 0.08631147 -0.8382485 0.3312891 0.3439544 0.2672048 1.532038 -0.4759398 -0.06178696 -1.424921 1.082844 -0.1049313 0.9141629 -0.3263654 -1.574472 -0.6831419 -0.3000431 1.329193 0.08197443 -0.2512757 0.7054591 0.998929 1.661936 0.9790537 1.582602 0.7470039 1.605783 1.840732 1.947917 1.767776 -0.9125221 -7.074008 1 40
0.2672506 -0.509068 -1.199353 -0.2262496 -0.2607839 -0.2021446 0.2685195 -0.3606684 -1.903158 0.07963937 -1.382807 0.4134785 -1.326389 0.528665 0.4544425 0.4893382 1.496541 -0.4453538 0.3180492 -2.013914 1.174054 -0.07006904 1.155667 -0.5220904 -1.097162 -0.8497236 -0.2183385 1.279463 0.001643452 0.04841978 0.5290344 1.159377 1.523355 0.9473547 1.450688 0.980902 1.482831 1.77495 1.81661 1.501769 -0.9703168 -7.584328 1 44
-0.01592615 -0.441772 -1.190375 -0.1411942 0.0870508 0.07102134 0.3183773 -0.228219 -2.105478 0.07914612 -1.892862 0.7897158 -1.841195 0.7955651 0.8537107 0.8447386 1.525329 -0.4833008 0.8589808 -2.539886 1.217168 0.07747931 1.570645 -0.7558684 -0.373323 -1.15321 -0.2152181 1.363394 -0.1025026 0.3549196 0.2383357 1.287982 1.246456 1.038512 1.217766 1.168924 1.252298 1.623756 1.565791 1.2337 -1.073662 -8.126765 1 48
-0.7340859 -0.3003773 -0.8843729 -0.01663583 0.4822661 0.6103914 0.3943073 0.08038913 -2.140875 0.05584835 -2.270541 0.7688258 -2.255589 1.043435 1.250446 1.153924 1.553093 -0.5578491 1.042711 -2.737342 1.147061 0.1869049 1.870023 -1.026352 0.1692042 -1.545201 -0.3121839 1.419516 -0.3095136 0.5491094 -0.09710832 1.241151 0.8762363 1.067168 0.8765603 1.203388 0.8887932 1.446479 1.239843 0.9943677 -1.170952 -7.252486 1 52
-1.25783 -0.0634562 -0.3669083 0.1594113 0.6909828 1.348423 0.4905233 0.5022829 -1.907263 -0.01393252 -2.394819 0.4043186 -2.404781 1.19011 1.329232 1.269492 1.492601 -0.5932826 0.8054085 -2.522504 1.015769 0.1463685 1.871101 -1.25673 0.3195953 -1.84399 -0.4529334 1.298435 -0.6117105 0.6070729 -0.3361361 1.063606 0.5125164 0.9128592 0.5253343 1.081955 0.5015259 1.321095 0.9298581 0.7885751 -1.163451 -5.388705 1 56
-0.8477585 0.1938871 0.136592 0.3447579 0.6978813 1.975852 0.5457621 0.6343935 -1.695897 -0.1619006 -2.205638 0.1013365 -2.229368 1.275337 1.157035 1.264525 1.391863 -0.5481514 0.7347577 -2.020175 0.9661682 0.09819949 1.820012 -1.386151 0.4648593 -1.899481 -0.520942 1.122762 -0.8474846 0.6531589 -0.4322897 1.02642 0.2338332 0.7344551 0.2678208 0.9056221 0.211718 1.301901 0.705741 0.6380996 -0.9711893 -5.838411 1 60
0.4713146 0.3807552 0.2800934 0.5014977 0.6573625 2.158751 0.552345 0.2093736 -1.670916 -0.4982509 -1.955953 -0.2303782 -2.003839 1.44431 1.079495 1.336738 1.317567 -0.4925952 0.8419784 -1.630625 1.065664 0.2501824 1.913977 -1.480819 0.7612018 -1.75596 -0.3922047 1.077566 -0.8975604 0.6547567 -0.5165424 1.076184 0.08019283 0.718203 0.1234212 0.7303855 0.02492705 1.299168 0.5663843 0.5711621 -0.3930339 -8.226286 1 64
0.9887463 0.3376782 0.07422393 0.4707807 0.6186725 1.795079 0.4948838 -0.4424337 -1.71284 -0.7762972 -1.914814 -0.5619672 -1.989088 1.74838 1.305039 1.543766 1.343971 -0.4793048 0.8241284 -1.557854 1.305553 0.6110229 2.094175 -1.589862 0.8859011 -1.716392 -0.01982369 1.22245 -0.7782086 0.5550908 -0.6643171 1.0229 0.08018632 0.9235601 0.09770021 0.59816 -0.04245567 1.257264 0.5189837 0.6398404 0.4519871 -9.564498 1 68
-0.4000096 0.0122064 -0.07336254 0.1556542 0.5441897 1.039747 0.336588 -0.8595936 -1.733211 -0.5386511 -2.058392 -0.4569943 -2.148122 2.110601 1.703714 1.772035 1.60586 -0.4073534 0.9423727 -1.762552 1.70089 1.051835 2.30426 -1.645079 0.7402906 -1.91107 0.5603758 1.534956 -0.5411549 0.4951621 -0.7660869 1.061347 0.2654647 1.278542 0.2313225 0.591078 0.09340477 1.348621 0.6338211 0.9099249 1.16365 -10.88623 1 72
-2.143301 -0.338113 0.1030705 -0.2096008 0.4865789 0.287009 0.1564707 -0.8732922 -1.776621 0.2860798 -2.268385 0.178163 -2.336546 2.463987 2.07495 1.914416 2.111467 -0.2128153 1.58107 -2.2083 2.181481 1.439112 2.550346 -1.619369 0.685285 -2.190307 1.194281 1.880897 -0.2931745 0.5636669 -0.778669 1.384944 0.5339758 1.555856 0.4634646 0.6339292 0.3436044 1.614245 0.8472632 1.256525 1.477389 -15.00104 1 76
-2.320392 -0.3974077 0.4494766 -0.2962156 0.5457341 0.04063164 0.1423246 -0.6929783 -1.866826 1.272751 -2.354692 0.6225699 -2.361759 2.714804 2.33602 1.974329 2.573704 -0.0436041 2.263802 -2.605526 2.500791 1.647722 2.756277 -1.597292 0.8569756 -2.392952 1.578689 2.019936 -0.2168353 0.5735153 -0.8517633 1.601903 0.6050736 1.535652 0.5545471 0.4558882 0.4054809 1.718835 0.872901 1.324025 1.45674 -19.40288 1 80
-1.466572 -0.2179326 0.5885181 -0.1361376 0.6225929 0.39759 0.3015374 -0.7361259 -1.891044 1.666055 -2.218668 -0.06813553 -2.165798 2.742806 2.411315 2.000923 2.622285 -0.06129775 1.741301 -2.799111 2.449744 1.642721 2.680796 -1.653103 0.7090511 -2.430623 1.592862 1.821285 -0.3748912 0.2633619 -1.085917 1.0498 0.3358794 1.227448 0.3359586 -0.05704234 0.1670409 1.383233 0.5662972 0.9648703 1.487394 -16.41034 1 84
-0.9929522 -0.06091605 0.4465861 0.02645388 0.5987063 0.986474 0.4759866 -0.902518 -1.764459 1.399952 -2.0254 -1.317991 -1.93438 2.597255 2.352383 2.024103 2.32187 -0.2128442 0.1813853 -3.05196 2.116388 1.535013 2.295916 -1.758718 0.007855158 -2.468565 1.471696 1.482365 -0.6137459 -0.250403 -1.430604 -0.06608796 -0.07493474 0.8745412 -0.06802945 -0.6440143 -0.1909848 0.8070225 0.1406431 0.4853494 1.646806 -6.445247 1 88
-0.7848559 0.00942421 0.2845949 0.1184184 0.5147943 1.393011 0.5945699 -0.8640108 -1.48834 1.145877 -1.786342 -1.788737 -1.682606 2.423867 2.255916 2.002023 2.021113 -0.335847 -0.8930163 -3.249893 1.747412 1.397401 1.901542 -1.797258 -0.6419985 -2.637765 1.378247 1.229064 -0.7763834 -0.6169286 -1.769739 -0.9288329 -0.4298624 0.5856582 -0.4688002 -1.062516 -0.5323439 0.3209336 -0.2182726 0.1043438 1.74485 1.581277 1 92
-0.04748206 0.06182972 0.2559951 0.1741112 0.3824027 1.472003 0.6727838 -0.7004468 -1.106503 0.9644527 -1.445468 -1.397924 -1.354763 2.277143 2.049669 1.842697 1.827927 -0.3546893 -1.009075 -2.975942 1.50033 1.254714 1.668153 -1.687063 -0.8201475 -2.681338 1.286003 1.048173 -0.8521786 -0.7658672 -1.949117 -1.305875 -0.7181259 0.2530368 -0.785301 -1.344154 -0.8164636 -0.03091879 -0.5074521 -0.2952159 1.811208 4.148771 1 96
1.167426 0.1103817 0.4194752 0.1924025 0.2065749 1.459836 0.7248667 -0.4381632 -0.7456854 0.6388974 -1.236312 -0.7117079 -1.172305 2.160553 1.725629 1.587106 1.715071 -0.3040047 -0.6627599 -2.306457 1.41175 1.202947 1.572556 -1.493658 -0.7210603 -2.510066 1.231113 0.9166551 -0.8940398 -0.8289335 -1.933528 -1.413554 -0.9386688 -0.09032755 -0.964416 -1.544361 -0.9949575 -0.3139604 -0.7070442 -0.7207546 1.765646 3.437844 1 100
1.954852 0.1590547 0.6714079 0.198449 0.0008539612 1.468376 0.7603773 -0.1544933 -0.4968291 0.2650277 -1.092809 -0.225184 -1.049347 2.050544 1.424621 1.390654 1.635648 -0.2452768 -0.3885964 -1.455263 1.373334 1.267554 1.546737 -1.319898 -0.6632252 -2.282101 1.229705 0.8238894 -0.934942 -0.8971127 -1.84538 -1.467724 -1.111034 -0.3226908 -1.048466 -1.659345 -1.088457 -0.5592042 -0.8368574 -1.041897 1.626812 2.338291 1 104
1.838794 0.2604737 0.8280596 0.2745207 -0.184832 1.450353 0.8582947 -0.1239976 -0.3019552 -0.08033068 -0.601893 -0.1636995 -0.5512509 1.879953 1.242687 1.300985 1.552118 -0.1905923 -0.3634421 -0.518573 1.239088 1.333453 1.570047 -1.184247 -0.7037834 -1.97827 1.171841 0.7081459 -0.9880857 -1.011883 -1.782678 -1.556724 -1.253515 -0.4206217 -1.145763 -1.725796 -1.183094 -0.790465 -0.9642164 -1.268815 1.689313 1.840366 1 108
1.439725 0.4949001 1.005084 0.4972727 -0.2304144 1.73282 1.102087 -0.2082118 -0.09744991 -0.1541987 0.08640543 -0.131273 0.1482901 1.602349 1.188835 1.201442 1.616263 -0.1269024 -0.1610563 0.1531227 1.0587 1.29081 1.781323 -1.101053 -0.6406332 -1.578422 0.998301 0.588793 -1.06702 -1.127294 -1.753746 -1.549368 -1.352317 -0.4496365 -1.28474 -1.800009 -1.318556 -0.9506319 -1.106267 -1.493557 1.791036 -0.09482722 1 112
1.430738 0.8303887 1.268341 0.8203472 -0.208492 2.368705 1.376159 -0.08394801 0.08707257 0.3439042 0.5196466 0.2791818 0.5681496 1.258596 1.193548 0.9704273 1.941266 -0.07286938 0.5342121 0.4046285 0.9858868 1.145604 2.221731 -1.073848 -0.3566773 -1.155478 0.7773761 0.5230194 -1.170225 -1.150973 -1.677046 -1.343688 -1.438306 -0.534584 -1.43313 -1.880523 -1.445129 -0.9598431 -1.244225 -1.753192 1.534847 -4.401501 1 116
1.534976 1.052376 1.316354 1.052585 -0.3090312 2.695871 1.494415 0.1609434 0.164554 1.353878 0.6672 0.923076 0.7074005 0.9851643 1.193758 0.6737344 2.398461 -0.01492315 1.55764 0.489186 1.06103 1.035103 2.720828 -1.006228 0.1044911 -0.7763369 0.6489174 0.5624083 -1.193551 -1.006215 -1.452616 -0.9115291 -1.420981 -0.6149542 -1.459779 -1.846887 -1.421433 -0.7831951 -1.264575 -1.928555 1.067182 -10.21065 1 120
1.09823 0.9988199 0.9767361 1.042415 -0.5501373 2.405101 1.427094 0.180521 0.06169659 2.325733 0.6653482 1.234087 0.7093256 0.84216 1.195875 0.4544153 2.750624 0.0777889 2.44183 0.5036964 1.192012 1.06981 3.132678 -0.868683 0.6723248 -0.5620749 0.7116839 0.7338724 -1.029577 -0.6815662 -1.13321 -0.2957548 -1.157409 -0.4655041 -1.247567 -1.563845 -1.162791 -0.422599 -1.064581 -1.776174 0.8042961 -15.72683 1 124
0.3579039 0.7190924 0.4967005 0.7996714 -0.8674536 1.84362 1.24185 -0.06363401 -0.1247525 2.62618 0.5994573 0.8451306 0.6245323 0.7022698 1.18827 0.3022777 2.795538 0.1448025 2.639401 0.3659918 1.210488 1.156644 3.345672 -0.7869762 1.16364 -0.6189907 0.8555315 0.8971884 -0.7886171 -0.3663798 -0.9210768 0.1722714 -0.8066855 -0.1430901 -0.9525536 -1.150802 -0.829875 -0.01735371 -0.76026 -1.285112 0.7558413 -17.36625 1 128
0.2535942 0.3954053 0.1795418 0.481728 -1.149222 1.294956 1.098753 -0.210474 -0.1473974 2.279203 0.5698275 0.2043134 0.5569258 0.4793854 1.141962 0.1679718 2.549044 0.1347592 2.101763 0.1215771 1.016181 1.108657 3.230251 -0.8310158 1.242747 -0.8656254 0.8535225 0.8336979 -0.6920201 -0.3417629 -0.9361099 0.1521043 -0.6582424 0.00405103 -0.8274128 -0.9287785 -0.6691099 0.2269144 -0.5730892 -0.8244764 0.6492009 -13.67316 1 132
1.026852 0.1677947 0.1166857 0.2380438 -1.255205 0.9338587 1.13274 -0.1612659 0.1240435 1.717711 0.5927554 -0.09861651 0.561949 0.2635721 1.027563 0.09186034 2.192214 0.0998584 1.263206 -0.1180197 0.7105183 0.8769474 2.771184 -0.9459894 0.7595137 -1.028609 0.623764 0.5273695 -0.7998703 -0.6002109 -1.069537 -0.2215688 -0.7155421 -0.1660095 -0.8856276 -0.9527382 -0.7028431 0.3221892 -0.571128 -0.7101853 0.5916849 -7.730858 1 136
1.943655 0.03791171 0.1787939 0.08351339 -1.202591 0.7960373 1.25284 -0.1272091 0.5605251 1.176002 0.5781451 -0.1425646 0.5568908 0.18769 0.8870106 0.1044961 1.842893 0.09551466 0.4984358 -0.2376752 0.4869067 0.6201939 2.127932 -1.042695 0.02847584 -0.9207077 0.2789084 0.1636558 -0.9695556 -0.8494144 -1.140578 -0.5272081 -0.7882723 -0.4204128 -0.9691144 -0.9621561 -0.7789467 0.4476748 -0.6500337 -0.8407057 0.8666822 -3.23088 1 140
2.71711 0.01075738 0.1347468 0.03961775 -1.091743 0.5943565 1.358707 -0.05572976 0.9525638 0.7981762 0.5649511 -0.1350647 0.5582244 0.2636819 0.8941259 0.1846007 1.521469 0.08738139 -0.06846848 -0.0772986 0.3526175 0.464021 1.451095 -1.085024 -0.6235414 -0.6791489 -0.1108055 -0.163784 -1.10885 -1.039188 -1.146426 -0.7001539 -0.8492046 -0.5683013 -1.029696 -0.9444843 -0.8726524 0.5744851 -0.7695618 -0.9461195 1.271323 -0.7287378 1 144
3.68687 0.09725651 -0.09321373 0.1275793 -0.9805331 0.1816501 1.468118 0.09960324 1.257477 0.5296635 0.7394775 -0.3304147 0.7403918 0.3438015 1.050005 0.2747755 1.181125 0.01133697 -0.7653698 0.2938583 0.1302536 0.3058357 0.7503051 -1.102453 -1.25203 -0.5369519 -0.6048687 -0.5494283 -1.270672 -1.430359 -1.197829 -1.106429 -0.9835745 -0.7157777 -1.133888 -1.152575 -1.048436 0.4973814 -0.9586603 -0.9588705 1.516233 2.889361 1 148
4.200778 0.2588138 -0.3605431 0.2979431 -0.8983888 -0.2742393 1.568983 0.151691 1.5689 0.1448592 1.054614 -0.9320408 1.052767 0.3112401 1.118042 0.3370459 0.8050878 -0.0623632 -1.723534 0.7308425 -0.1847653 0.0871598 0.1100467 -1.042807 -1.786284 -0.4656725 -1.139906 -1.01368 -1.408134 -1.982166 -1.25188 -1.723177 -1.127495 -0.9700243 -1.252082 -1.505728 -1.210155 0.2850396 -1.098172 -0.933983 1.693712 8.569648 1 152
3.365197 0.5057683 -0.4860661 0.5494623 -0.8099146 -0.6949685 1.657995 0.1041027 1.885051 -0.140522 1.288945 -1.300949 1.282972 0.2363104 1.087451 0.4192154 0.545403 0.03861668 -2.060885 1.405459 -0.3900308 -0.04349923 -0.2100519 -0.7775274 -1.861709 -0.2061125 -1.526008 -1.369774 -1.380389 -2.297882 -1.137534 -1.859224 -1.100108 -1.210923 -1.216419 -1.630175 -1.168691 0.2983067 -0.9994214 -0.8181083 1.891029 10.13561 1 156
2.007123 0.8365438 -0.5521713 0.8910567 -0.7052386 -0.9874727 1.764351 0.03449841 2.086444 -0.1016912 1.369361 -1.041775 1.368425 0.2030847 1.169597 0.5328416 0.489866 0.3027628 -1.513456 2.138159 -0.4779178 -0.0419786 -0.2137459 -0.3861355 -1.625627 0.2990994 -1.755455 -1.551067 -1.2242 -2.321311 -0.8474769 -1.374374 -0.8553386 -1.338963 -0.9748359 -1.477571 -0.9175491 0.5905708 -0.6939617 -0.5654302 2.065726 5.395231 1 160
1.642607 1.218349 -0.7372286 1.299217 -0.594539 -0.7345016 1.895808 -0.07830572 2.112072 -0.01151411 1.317135 -0.6172503 1.320727 0.1587293 1.40028 0.6090758 0.4646379 0.5053694 -1.078979 2.2233 -0.649359 -0.06198964 -0.2302375 -0.1784253 -1.663228 0.7345127 -2.024484 -1.763169 -1.140415 -2.408217 -0.6077279 -1.049967 -0.6155122 -1.458194 -0.7670774 -1.401785 -0.6987694 0.7445892 -0.4616672 -0.3410306 2.135836 1.591363 1 164
2.354274 1.611704 -0.8183041 1.706017 -0.3870387 0.1831363 2.063248 -0.1950217 2.078375 -0.02020259 1.318049 -0.07209763 1.307404 0.0863836 1.671035 0.6666479 0.3465754 0.5720484 -1.011693 1.625717 -0.9473942 -0.175896 -0.3832072 -0.275128 -2.009054 0.9194677 -2.437142 -2.108924 -1.234322 -2.685833 -0.5935792 -1.225736 -0.6169978 -1.666354 -0.8217741 -1.600844 -0.7201056 0.5105357 -0.5117418 -0.3304337 2.108328 1.71977 1 168
2.920899 1.841732 -0.4706591 1.891098 -0.09660374 1.027085 2.21465 -0.2819245 2.157477 -0.1380303 1.629219 0.6125979 1.575487 0.07126769 1.873315 0.7499498 0.1997805 0.6424085 -0.8562504 1.011389 -1.205982 -0.3275241 -0.5642145 -0.4631367 -2.218232 1.010177 -2.871221 -2.420263 -1.397239 -2.90777 -0.6870245 -1.447688 -0.7734024 -1.905751 -1.020973 -1.84218 -0.8821337 0.1517855 -0.7121642 -0.4325379 2.209084 2.13349 1 172
2.716956 1.747287 0.1485455 1.701356 0.0916504 1.17737 2.23032 -0.2236913 2.326492 -0.4152384 1.95919 0.9246839 1.855216 0.1240638 1.930104 0.7701385 0.1323008 0.7413103 -0.7001967 0.6059065 -1.245462 -0.4759228 -0.7096746 -0.5844733 -2.130434 1.088053 -3.152359 -2.513378 -1.459841 -2.889515 -0.6929423 -1.389617 -0.823906 -2.030703 -1.088176 -1.823536 -0.9343936 0.06170243 -0.7722163 -0.4076202 2.390264 1.740268 1 176
2.472549 1.512046 0.6112407 1.383473 0.0898737 0.9485695 2.127617 0.1505203 2.470397 -0.7315449 1.836966 0.7523306 1.72023 0.1662935 1.893631 0.6446881 0.1718831 0.7467445 -0.8693252 0.3047838 -1.078874 -0.610769 -0.8574884 -0.7403557 -2.11475 1.062861 -3.254236 -2.411659 -1.405946 -2.83522 -0.6746373 -1.278031 -0.739634 -1.998172 -0.9865685 -1.638941 -0.8676592 0.2432304 -0.6596897 -0.239765 2.297732 2.385642 1 180
2.844474 1.426742 0.7119347 1.274999 0.01250601 0.8116689 2.047645 0.6798214 2.461544 -0.9177732 1.512293 0.5772307 1.435037 0.1842563 1.958055 0.4687411 0.2571693 0.6106499 -1.330535 0.2403097 -0.8940143 -0.7222083 -1.080766 -0.9952055 -2.572414 0.8996786 -3.274872 -2.261154 -1.316372 -3.035069 -0.7604151 -1.431051 -0.6797422 -1.907715 -0.8751232 -1.603514 -0.8518932 0.3667787 -0.5443727 -0.07535315 1.866988 4.481035 1 184
3.578961 1.432986 0.5399122 1.324969 0.06409177 0.8657256 2.01691 1.042125 2.061827 -0.7151394 1.27942 0.6601134 1.261062 0.2347401 2.328632 0.3901377 0.4866952 0.3792297 -1.671626 0.3668371 -0.7555987 -0.7823672 -1.259073 -1.241474 -3.184735 0.5475447 -3.276089 -2.086067 -1.22588 -3.356736 -0.9335184 -1.744901 -0.7062792 -1.770214 -0.8287518 -1.743207 -0.897922 0.2790339 -0.4921432 0.01398289 1.182734 6.334007 1 188
4.208727 1.353866 0.2919534 1.323366 0.2397109 1.115856 1.963675 1.205052 1.261141 -0.002488243 0.9219143 0.6170446 0.932823 0.3383088 2.941495 0.381424 1.001379 0.1200189 -1.620177 0.3957026 -0.558601 -0.7529814 -1.128291 -1.429312 -3.169934 -0.101313 -3.221341 -1.803228 -1.133886 -3.437043 -1.172859 -1.925189 -0.7750601 -1.551626 -0.8200006 -1.893063 -0.9281929 0.1301135 -0.4731882 0.04649452 0.3039768 6.803689 1 192
4.313262 1.200276 0.1553856 1.223864 0.304597 1.314561 1.857511 1.307465 0.51451 0.8902465 0.4616704 0.2354581 0.4572105 0.4896137 3.471953 0.3176975 1.676406 -0.07487221 -1.154757 0.455192 -0.2252826 -0.6183823 -0.642239 -1.548309 -2.303176 -0.8346033 -3.053671 -1.395219 -0.9946062 -3.162384 -1.410066 -1.785139 -0.7977346 -1.32991 -0.7876772 -1.962964 -0.9144213 0.1039056 -0.416216 0.08352309 -0.4145051 4.991854 1 196
3.792021 1.040666 0.2440346 1.074938 0.2434671 1.267099 1.710996 1.436104 0.2231855 1.58153 0.0005779537 0.06319778 -0.02733807 0.6880355 3.783099 0.2449552 2.28345 -0.1492648 -0.365418 0.6311373 0.178284 -0.4137481 -0.04220143 -1.577491 -1.194782 -1.267795 -2.800415 -0.9544533 -0.7756078 -2.789996 -1.55408 -1.429672 -0.7425308 -1.180011 -0.7160743 -1.991936 -0.8512161 0.161258 -0.2897023 0.1315524 -0.6504586 0.9845855 1 200
3.148418 0.9015617 0.5234945 0.9260912 0.2704095 1.365297 1.526518 1.496896 0.2277995 1.889203 -0.6367236 0.1813647 -0.6636436 0.9059547 3.973964 0.3250663 2.6478 -0.1613576 0.08954746 0.3480699 0.4810354 -0.2030263 0.3592129 -1.622229 -0.6857865 -1.46778 -2.544876 -0.6118524 -0.5394653 -2.687935 -1.675252 -1.361335 -0.7242567 -1.078037 -0.6942813 -2.142327 -0.7985706 0.126388 -0.210066 0.137916 -0.5446666 -0.7984071 1 204
2.943044 0.7322503 0.8542737 0.7429469 0.4334181 1.662719 1.297891 1.350022 0.1275977 1.804963 -1.17328 0.1493763 -1.199883 1.105862 4.09002 0.5516768 2.704642 -0.1609512 -0.2337985 -0.4574216 0.6222106 0.01395334 0.4381666 -1.725762 -1.003739 -1.70094 -2.297596 -0.3972475 -0.35194 -2.890009 -1.836455 -1.748503 -0.8338801 -0.9358547 -0.7869825 -2.396583 -0.8311883 -0.01523032 -0.273078 0.1230043 -0.3784882 1.880781 1 208
3.542052 0.5485404 1.056158 0.5448093 0.5974351 1.674737 1.119915 1.136429 -0.1735154 1.401762 -1.168796 0.118668 -1.218308 1.25528 4.076027 0.7371687 2.554351 -0.1330986 -0.7851649 -1.150914 0.7021613 0.2343762 0.3014729 -1.80754 -1.601812 -1.950172 -2.021831 -0.2614038 -0.2524523 -3.14206 -1.977307 -2.21503 -1.029044 -0.7963267 -0.9538183 -2.596288 -0.9558296 -0.1972611 -0.4385696 0.0593836 -0.3244656 5.490267 1 212
4.698572 0.4576683 1.07399 0.4464303 0.7095924 1.545367 1.14749 1.031585 -0.5365444 0.9677489 -0.9079595 0.3056487 -0.9632925 1.353356 3.927369 0.7903355 2.419568 -0.1116078 -1.04986 -1.688148 0.8530895 0.38635 0.1446168 -1.905711 -1.950658 -2.133447 -1.723578 -0.1556261 -0.2521532 -3.278503 -2.090029 -2.545664 -1.231709 -0.7826852 -1.129695 -2.75564 -1.125463 -0.406969 -0.641438 -0.1662978 -0.4319174 7.705843 1 216
5.18484 0.4298218 1.054603 0.4210619 0.8333263 1.709301 1.341897 0.9089775 -0.9005915 0.9547762 -0.8662275 0.3013079 -0.888654 1.488368 3.814988 0.8492085 2.508059 -0.08748321 -1.166506 -2.285173 1.160869 0.5292854 0.1163551 -2.020069 -2.082102 -2.247513 -1.375625 -0.004515399 -0.2309768 -3.255588 -2.191841 -2.724002 -1.363197 -0.7924397 -1.247293 -2.849943 -1.246319 -0.5876271 -0.8063429 -0.4654599 -0.5038748 8.58233 1 220
4.232144 0.4016744 1.027217 0.3991457 0.9172052 1.97316 1.482236 0.4798681 -1.188596 1.10512 -0.9849576 -0.4264119 -0.9742597 1.724861 3.876006 1.032927 2.711216 0.03535112 -1.689144 -2.615938 1.526756 0.8254048 0.07741088 -1.953968 -2.397124 -2.301689 -0.914579 0.1623138 -0.04887357 -3.210362 -2.233737 -2.909647 -1.409183 -0.7210041 -1.292913 -2.863725 -1.293237 -0.7537162 -0.9091105 -0.6688806 -0.1266274 9.897696 1 224
2.787099 0.4122162 0.9314972 0.4121958 0.8860382 1.962981 1.516038 -0.2133427 -1.228167 0.8821476 -0.9310568 -1.473965 -0.9206499 1.990611 4.026605 1.288547 2.735527 0.2899139 -2.616546 -2.201473 1.734544 1.248601 -0.2220994 -1.576011 -3.027508 -2.281135 -0.4316339 0.2095168 0.2611987 -3.386868 -2.159622 -3.295977 -1.453509 -0.6827678 -1.338901 -3.015723 -1.356665 -1.031951 -1.041166 -0.8266957 0.7834247 12.35482 1 228
2.024781 0.4962022 0.8551605 0.4917704 0.7978606 1.738038 1.56287 -0.727054 -1.00272 0.423118 -0.6351703 -1.986446 -0.6534263 2.169682 4.053999 1.519562 2.534079 0.6153794 -3.186623 -1.121445 1.727289 1.602858 -0.6445354 -1.004741 -3.513384 -2.187585 -0.1362817 0.1178523 0.5673285 -3.698287 -1.993846 -3.683295 -1.540583 -0.7653114 -1.420132 -3.346768 -1.46548 -1.406219 -1.241584 -1.062219 1.745369 13.37988 1 232
1.925545 0.595288 0.893791 0.5798205 0.6507497 1.469643 1.602184 -0.8007753 -0.6141152 -0.1373809 -0.3047339 -1.831474 -0.345215 2.175513 3.785147 1.621777 2.218573 0.8810368 -3.17287 -0.05918002 1.618564 1.760556 -0.8615128 -0.4741375 -3.551913 -2.109074 -0.06087628 -0.02649933 0.7718738 -3.835633 -1.865836 -3.855832 -1.662856 -0.9433784 -1.540377 -3.605848 -1.589894 -1.716265 -1.42902 -1.392158 2.315124 12.92161 1 236
2.16027 0.5901878 1.096953 0.5518119 0.4390534 1.111023 1.540942 -0.4305562 -0.207399 -0.8023105 -0.168788 -1.102168 -0.1950064 2.038477 3.351244 1.569858 1.893866 0.9817436 -2.801246 0.3787957 1.540154 1.774947 -0.8146735 -0.1076492 -3.374683 -2.049309 -0.06119984 -0.1267406 0.8638666 -3.722212 -1.821361 -3.826969 -1.785472 -1.099947 -1.644752 -3.657679 -1.684372 -1.864546 -1.509789 -1.688185 2.311429 12.35239 1 240
2.35084 0.4224446 1.373346 0.3497392 0.2481317 0.7772796 1.353649 0.1596565 8.084557e-05 -1.379162 -0.4266443 -0.2842045 -0.4194015 1.904927 3.068166 1.450004 1.647159 0.911536 -2.371621 -0.004547921 1.519311 1.787053 -0.6232697 0.05887692 -3.085671 -2.051636 -0.05136551 -0.1178941 0.9031473 -3.475671 -1.784236 -3.698399 -1.81455 -1.096513 -1.614006 -3.534638 -1.665525 -1.878786 -1.457521 -1.778496 1.848662 12.47974 1 244
1.955543 0.1650146 1.433656 0.07097821 0.0893158 0.7227967 1.044867 0.4404383 -0.02749517 -1.770262 -0.9408697 -0.2644946 -0.9218346 1.811619 3.040904 1.279624 1.488104 0.7056205 -2.364713 -1.004157 1.474815 1.848685 -0.3454293 0.01099284 -2.629701 -2.224553 0.002210357 -0.02084274 0.9299982 -3.234303 -1.732149 -3.66959 -1.728184 -0.9515404 -1.503476 -3.315117 -1.564637 -1.866104 -1.350546 -1.682186 1.43495 15.16198 1 248
1.434275 -0.01003288 1.191919 -0.09269463 -0.0519827 0.8361483 0.7303343 0.2741851 -0.1812636 -1.791704 -1.219969 -0.8626288 -1.20348 1.688797 3.18629 1.055994 1.451738 0.4646511 -2.688431 -2.005378 1.376099 1.888701 -0.03144134 -0.161903 -2.247557 -2.410311 0.1083819 0.08050458 0.9262604 -3.118871 -1.680673 -3.781016 -1.648483 -0.8294136 -1.475489 -3.122166 -1.511055 -1.898334 -1.309843 -1.591697 1.272731 18.95884 1 252
1.823659 0.04052452 0.84293 -0.00133237 -0.0651425 0.8848211 0.6288887 0.1379907 -0.4113015 -1.231003 -1.159105 -1.292906 -1.134883 1.548265 3.385602 0.8860281 1.595692 0.3036671 -2.880041 -2.461851 1.267051 1.803362 0.1967774 -0.3174337 -2.197141 -2.426728 0.1342109 0.07961099 0.867295 -3.161246 -1.627762 -3.90703 -1.688249 -0.8769451 -1.551195 -3.061408 -1.559206 -1.970152 -1.377756 -1.656443 0.9834023 20.6065 1 256
3.073205 0.3102367 0.4842527 0.3308774 0.2028628 0.9467999 0.8441029 0.2419479 -0.7016048 -0.3221714 -1.108433 -1.487479 -1.08454 1.447041 3.557189 0.891823 1.831834 0.2307279 -2.844456 -2.348541 1.158541 1.583671 0.284056 -0.3720516 -2.291079 -2.27689 -0.07119222 -0.06437385 0.7590851 -3.299186 -1.529738 -3.982151 -1.783278 -1.083326 -1.633908 -3.151442 -1.626682 -2.058493 -1.478253 -1.853276 0.4575981 19.81665 1 260
4.176446 0.6115825 0.1356507 0.6960914 0.6944399 1.111248 1.224303 0.302307 -1.054157 0.4317664 -1.257672 -1.708538 -1.268269 1.402494 3.778685 1.086318 2.021879 0.2016453 -2.733474 -2.028681 1.048008 1.388309 0.2899835 -0.3530181 -2.267502 -2.091995 -0.3960543 -0.2478138 0.6355209 -3.47363 -1.358291 -4.003962 -1.756089 -1.283298 -1.606691 -3.322103 -1.566878 -2.135 -1.485428 -1.968007 0.0393845 18.09052 1 264
4.236858 0.7022097 -0.03708915 0.8177368 1.139933 1.277437 1.538395 0.06470399 -1.367797 0.7092332 -1.500536 -2.150409 -1.566504 1.433606 4.131904 1.372401 2.12661 0.2017445 -2.914608 -1.728743 0.9573072 1.380466 0.1703622 -0.3200336 -2.378439 -2.082789 -0.5791062 -0.3783979 0.5794279 -3.709835 -1.169773 -4.075132 -1.539885 -1.330034 -1.414518 -3.494658 -1.358106 -2.175768 -1.334561 -1.794676 0.03326676 17.52772 1 268
3.392992 0.5390089 0.08229429 0.6437922 1.359007 1.423654 1.71221 -0.4309907 -1.496344 0.541916 -1.667223 -2.786588 -1.763577 1.563262 4.468622 1.618923 2.143402 0.2423763 -3.502877 -1.30772 0.9102113 1.528064 -0.1892625 -0.2349126 -2.874809 -2.220232 -0.5390442 -0.4960353 0.6619939 -4.018671 -0.9981034 -4.208698 -1.218239 -1.243571 -1.11345 -3.62795 -1.090825 -2.133415 -1.056726 -1.39408 0.4925034 18.28903 1 272
2.731367 0.310696 0.3114912 0.3891439 1.342333 1.532074 1.741553 -0.822794 -1.504072 0.1626432 -1.676385 -2.996371 -1.763963 1.738882 4.581461 1.691175 2.065719 0.299336 -3.949655 -0.8363764 0.9323369 1.688887 -0.7466784 -0.05600607 -3.4976 -2.326739 -0.3495965 -0.6701898 0.8439218 -4.332727 -0.7997133 -4.241481 -0.8921185 -1.168527 -0.8022986 -3.717314 -0.805418 -1.964613 -0.7193963 -0.9990217 1.023995 18.25202 1 276
2.645286 0.2250666 0.3916105 0.2810011 1.152113 1.512661 1.623213 -0.922244 -1.550003 -0.394398 -1.56973 -2.521778 -1.64597 1.842324 4.426958 1.541112 1.881912 0.3334632 -4.041264 -0.7000986 1.018249 1.823797 -1.391358 0.182942 -4.032002 -2.363536 -0.07294035 -0.9232987 1.066679 -4.6566 -0.4856821 -4.191453 -0.5651336 -1.192773 -0.4881054 -3.801024 -0.4752195 -1.728611 -0.3612728 -0.7000753 1.214649 17.61158 1 280
2.441233 0.2943716 0.2526497 0.3308932 0.8804708 1.431909 1.408458 -1.03406 -1.645406 -1.244553 -1.591851 -2.171089 -1.683945 1.856174 4.156758 1.308673 1.598866 0.3497937 -4.204905 -0.9721455 1.147781 2.008814 -1.96974 0.4468649 -4.408646 -2.305995 0.2571891 -1.133128 1.358754 -4.950125 -0.0581646 -4.145813 -0.1825369 -1.230439 -0.1255904 -3.817239 -0.08374843 -1.486988 0.01282037 -0.3711436 1.306635 17.96811 1 284
1.73907 0.2865414 0.02350949 0.2982305 0.5499922 1.223379 1.092707 -1.450687 -1.687987 -2.345438 -1.845623 -2.552121 -1.953435 1.864563 3.959443 1.14004 1.264812 0.3539214 -4.645401 -1.283551 1.34143 2.272719 -2.316702 0.6869403 -4.511438 -2.146541 0.6284327 -1.1104 1.733662 -5.077001 0.3305344 -4.071092 0.2128672 -1.111956 0.2360999 -3.673421 0.2971542 -1.229443 0.3598689 0.07188591 1.767969 19.27638 1 288
1.204614 0.09320244 -0.07311472 0.06276539 0.1464121 0.7945969 0.6925191 -1.981565 -1.663594 -3.429845 -2.022614 -3.210783 -2.108524 1.86861 3.806998 0.9711233 0.9673082 0.3330792 -5.133687 -1.304407 1.591867 2.540984 -2.429624 0.8219273 -4.488981 -2.015848 0.9995594 -0.8908301 2.073383 -5.109305 0.5626006 -4.015506 0.5192701 -0.8408844 0.5247703 -3.523073 0.5666419 -0.9758923 0.6130293 0.4914606 2.417289 20.55404 1 292
1.434137 -0.09795091 0.09765186 -0.1816363 -0.225674 0.4158992 0.3586712 -2.069145 -1.614098 -3.870821 -2.020771 -3.350796 -2.069682 1.877641 3.602396 0.7102711 0.9024464 0.2790756 -5.191967 -1.294894 1.872685 2.762632 -2.290444 0.8220654 -4.490607 -2.007475 1.28809 -0.6266522 2.243895 -5.150203 0.6251972 -3.967066 0.7041603 -0.638229 0.7224649 -3.557733 0.7016997 -0.7713831 0.7741835 0.7039573 2.632252 19.95571 1 296
1.726995 -0.2223803 0.4201436 -0.3491191 -0.4704793 -0.02264136 0.121957 -1.580075 -1.528363 -3.351152 -2.054101 -2.966076 -2.077607 2.003002 3.429236 0.4610255 1.168723 0.2404388 -4.669752 -1.656899 2.214589 3.008395 -1.849949 0.7890888 -4.364632 -1.992875 1.541618 -0.33185 2.322434 -5.082003 0.6170414 -3.806243 0.8091834 -0.5848476 0.8553758 -3.694819 0.7610936 -0.6240875 0.9006675 0.7167264 2.354101 16.81807 1 300
1.33258 -0.3659476 0.6574528 -0.5194882 -0.6203982 -0.6614865 -0.1401199 -1.007794 -1.525929 -2.52164 -2.188509 -2.713955 -2.198782 2.244534 3.373563 0.3372471 1.499848 0.2585937 -4.187971 -2.205203 2.55949 3.339138 -1.351343 0.8325472 -4.212773 -1.944635 1.888295 -0.03334242 2.469124 -4.906533 0.6166155 -3.673986 0.8561811 -0.5358204 0.9569565 -3.796336 0.8042095 -0.5814255 0.9924968 0.6571018 1.974453 14.24311 1 304
0.6180994 -0.4246736 0.7512864 -0.5876938 -0.6520988 -0.7639878 -0.3553253 -0.7298078 -1.716636 -1.978357 -2.391585 -2.751118 -2.392402 2.490403 3.421575 0.3349323 1.611251 0.3122152 -4.257219 -2.455428 2.756243 3.697689 -1.154122 0.9159279 -4.449349 -2.019801 2.251517 0.1416444 2.634073 -4.856032 0.5038121 -3.822654 0.7491081 -0.4517651 0.9370891 -3.896808 0.7567699 -0.7195688 0.9430407 0.552165 1.68549 14.76205 1 308
0.3799785 -0.2541649 0.674732 -0.393515 -0.4582968 -0.0612402 -0.2878374 -0.8287437 -2.027722 -1.684938 -2.615412 -2.872099 -2.601238 2.72922 3.559232 0.4405384 1.570289 0.4431027 -4.609802 -2.055454 2.824106 4.020646 -1.262357 1.018086 -4.981039 -2.126589 2.47186 0.1681668 2.698289 -4.989136 0.2303141 -4.143708 0.4115866 -0.4338998 0.6845201 -4.02521 0.5100302 -0.978188 0.6799009 0.3169549 1.618112 16.24085 1 312
1.090093 0.04342325 0.393193 -0.04246356 -0.05078734 0.6545056 0.05350462 -1.203774 -2.431292 -1.527228 -2.710501 -3.148061 -2.70268 3.003071 3.705203 0.6248035 1.566034 0.6808969 -4.780334 -1.080401 2.911858 4.286198 -1.390396 1.193915 -5.189561 -2.117311 2.550672 0.1333382 2.671723 -5.068826 -0.01944509 -4.323113 -0.04917878 -0.508729 0.2800881 -4.103815 0.1304421 -1.222488 0.2771403 -0.1124458 1.794607 15.7381 1 316
2.276116 0.2873451 0.1238283 0.2528405 0.4034102 0.8972331 0.4347179 -1.556737 -2.865892 -1.340119 -2.582748 -3.363317 -2.603205 3.275011 3.796571 0.8592694 1.664456 0.9401895 -4.53219 -0.1366133 3.076818 4.501606 -1.365609 1.38671 -4.912701 -2.07849 2.587548 0.1069858 2.622832 -4.952467 -0.1210743 -4.232894 -0.4275054 -0.5934467 -0.06298919 -4.085078 -0.2068568 -1.400486 -0.1012123 -0.6496291 1.984774 12.69306 1 320
3.011973 0.4136024 0.08027913 0.4089465 0.7493708 0.9040285 0.6926177 -1.682761 -3.134362 -1.142083 -2.438074 -3.143456 -2.464656 3.492681 3.899083 1.145412 1.790967 1.126882 -4.106498 0.133741 3.234455 4.702861 -1.307279 1.464769 -4.6987 -2.130892 2.6921 0.1071779 2.606659 -4.81662 -0.1831442 -4.0809 -0.6154956 -0.6226096 -0.2272165 -4.02718 -0.4050511 -1.542612 -0.3423745 -1.120461 2.087752 9.48704 1 324
2.93876 0.386489 0.2562059 0.385085 0.934496 1.011982 0.7520095 -1.671186 -3.081351 -1.280813 -2.44211 -2.787526 -2.459854 3.685953 4.003903 1.436247 1.81294 1.216602 -4.13539 -0.3240223 3.287081 4.895602 -1.446344 1.393766 -4.982387 -2.305564 2.886072 0.1058248 2.620007 -4.881761 -0.3616773 -4.233057 -0.7065794 -0.5999248 -0.3338615 -4.058494 -0.5353039 -1.740598 -0.4966421 -1.482965 2.369653 9.968674 1 328
2.088467 0.2700131 0.5249668 0.2468298 0.9581415 1.140752 0.6374967 -1.729289 -2.78426 -1.695829 -2.403128 -2.801678 -2.429816 3.914346 3.997141 1.650529 1.802281 1.292849 -4.594877 -0.9394031 3.349647 5.074904 -1.695567 1.281019 -5.381485 -2.44975 3.105206 0.1381032 2.642821 -5.04284 -0.5676911 -4.614683 -0.7984948 -0.5745593 -0.4885178 -4.19348 -0.6688915 -2.014357 -0.6334022 -1.795946 3.001826 13.18059 1 332
0.8637084 0.2537959 0.7100972 0.202789 0.8745098 1.013723 0.535709 -1.834376 -2.52584 -1.921272 -2.254876 -3.08887 -2.30473 4.176369 3.843391 1.798753 1.948384 1.461629 -4.73636 -1.233126 3.5999 5.245819 -1.735458 1.259932 -5.203576 -2.443338 3.320321 0.2762847 2.666901 -4.99242 -0.6094494 -4.754776 -0.8715515 -0.6492836 -0.6024688 -4.274504 -0.7566994 -2.262163 -0.7264987 -2.101912 3.632709 14.19875 1 336
0.1017494 0.3938016 0.7973309 0.3328603 0.8182659 0.8302717 0.6290063 -1.723793 -2.423944 -1.760719 -2.227759 -3.125857 -2.293018 4.416198 3.667641 1.988423 2.2359 1.70793 -4.256937 -1.398767 3.952776 5.37725 -1.506402 1.303839 -4.484219 -2.467428 3.467041 0.4653528 2.66052 -4.72202 -0.5748078 -4.586822 -0.9913328 -0.8501577 -0.7096972 -4.264822 -0.855863 -2.477773 -0.8347508 -2.454114 3.848496 11.99629 1 340
-0.05746217 0.6137499 0.9170059 0.5592046 0.8730467 1.032594 0.9011831 -1.408574 -2.340698 -1.451358 -2.405355 -2.768945 -2.475268 4.580154 3.655418 2.261065 2.516536 1.937763 -3.582103 -1.827277 4.184168 5.457947 -1.143537 1.297064 -3.811189 -2.616715 3.458244 0.6014126 2.627098 -4.52401 -0.6617364 -4.484153 -1.228519 -1.040036 -0.9370811 -4.340163 -1.072191 -2.765885 -1.059891 -2.815804 3.79258 9.551701 1 344
-0.2780621 0.8841752 1.1029 0.8289879 1.006055 1.558776 1.231719 -1.221287 -2.212803 -1.258029 -2.512276 -2.406717 -2.590801 4.682783 3.807965 2.572062 2.667142 2.127017 -3.187498 -2.253005 4.180197 5.529503 -0.7859455 1.257738 -3.533972 -2.720725 3.31931 0.6071575 2.57175 -4.607622 -0.834787 -4.673859 -1.497658 -1.17828 -1.206731 -4.641355 -1.326202 -3.174149 -1.348869 -3.083758 3.846769 8.75235 1 348
-0.643824 1.165445 1.292306 1.10169 1.170723 1.846485 1.568137 -1.220018 -2.046501 -0.9971378 -2.239497 -2.250279 -2.327489 4.767107 3.925367 2.891676 2.72151 2.330871 -3.065698 -2.170452 4.00146 5.573689 -0.5451171 1.222435 -3.545595 -2.767668 3.105048 0.4115349 2.459312 -4.924594 -0.9723717 -5.04645 -1.72927 -1.431125 -1.422829 -5.1087 -1.52748 -3.635562 -1.61091 -3.330364 4.050596 8.953567 1 352
-0.4982051 1.426955 1.396042 1.367656 1.308411 1.587302 1.893923 -1.169685 -1.741549 -0.4809757 -1.670004 -2.094626 -1.748584 4.782174 3.837956 3.145243 2.841882 2.536443 -2.933385 -1.726672 3.805779 5.474347 -0.3833781 1.10905 -3.530197 -2.938392 2.81015 0.03117282 2.258512 -5.216622 -1.118812 -5.411342 -1.978023 -1.914154 -1.684528 -5.582968 -1.752222 -4.061739 -1.886261 -3.746425 4.254197 9.401576 1 356
0.7641187 1.7341 1.457395 1.685882 1.40197 1.126107 2.191046 -0.9129608 -1.321399 -0.03956392 -1.061428 -1.731839 -1.097122 4.667027 3.579051 3.241187 3.022068 2.665029 -2.755529 -1.250979 3.646536 5.185699 -0.2611143 0.9071763 -3.46369 -3.190517 2.415987 -0.4426196 1.940978 -5.365842 -1.379249 -5.785138 -2.373034 -2.554295 -2.117328 -6.018405 -2.126817 -4.513928 -2.303327 -4.382277 4.306767 10.51031 1 360
2.754938 2.042207 1.633525 1.989014 1.529864 0.8480186 2.44894 -0.5354096 -0.9043615 0.02457172 -0.5214675 -1.261356 -0.5006948 4.504548 3.392966 3.259418 3.116621 2.712182 -2.688417 -0.6964874 3.436101 4.846119 -0.2703209 0.7345059 -3.584365 -3.224657 1.979504 -0.8834217 1.561908 -5.537421 -1.675848 -6.206155 -2.889177 -3.107646 -2.629999 -6.377575 -2.605211 -5.04639 -2.840306 -5.029467 4.266576 11.93462 1 364
4.1819 2.275304 1.878911 2.204712 1.724424 0.8548478 2.683996 -0.3000779 -0.5181561 -0.1409818 -0.08306569 -1.018903 -0.03444428 4.401457 3.488558 3.338548 3.10204 2.729656 -2.861521 -0.08641341 3.129871 4.584259 -0.4855574 0.6727057 -3.998224 -2.921786 1.603163 -1.195895 1.229689 -5.831889 -1.84336 -6.566492 -3.310868 -3.39973 -3.014807 -6.557451 -3.010195 -5.5037 -3.298226 -5.423712 4.386178 12.93512 1 368
4.671861 2.593985 2.018984 2.507725 1.94772 1.166705 2.983977 -0.2515676 -0.2197919 -0.257085 0.282321 -1.164164 0.3350991 4.353637 3.799181 3.461233 3.070039 2.730381 -3.35487 0.3581363 2.802688 4.345058 -0.8972948 0.6666433 -4.692938 -2.521383 1.277064 -1.460557 0.9184408 -6.161373 -1.881993 -6.855452 -3.587022 -3.607571 -3.263865 -6.62641 -3.319295 -5.743733 -3.64041 -5.595567 4.623153 14.18826 1 372
5.023184 3.05686 2.058711 2.962412 2.183054 1.570814 3.365948 -0.07704145 0.01464945 -0.08664196 0.5814193 -1.29456 0.6475127 4.335536 4.1275 3.556373 3.118834 2.686188 -3.823483 0.5365684 2.544458 4.045781 -1.331188 0.6017599 -5.413285 -2.241905 0.912454 -1.794579 0.5610614 -6.397493 -1.872846 -7.072235 -3.81246 -3.947887 -3.49338 -6.734496 -3.606727 -5.802141 -3.953403 -5.782976 4.718607 15.32899 1 376
5.383533 3.436328 2.190833 3.331864 2.433111 1.880773 3.693946 0.3910928 0.3043037 0.3858765 0.6846735 -1.091716 0.7659931 4.343141 4.382419 3.615958 3.249329 2.583334 -3.829427 0.4038316 2.365428 3.755387 -1.574853 0.4682791 -5.71023 -2.01844 0.5382537 -2.152468 0.2563506 -6.489736 -1.825083 -7.134284 -3.966148 -4.32724 -3.677184 -6.880503 -3.820222 -5.799565 -4.172424 -6.051533 4.602602 15.07443 1 380
4.85252 3.592724 2.446194 3.465098 2.662751 2.25453 3.865127 0.7521178 0.6303183 0.774339 0.5867695 -0.9297848 0.6659242 4.355865 4.598484 3.679427 3.321522 2.447416 -3.641297 -0.01160344 2.187289 3.578219 -1.714068 0.2986397 -5.500465 -1.852573 0.2893343 -2.436224 0.1112078 -6.514099 -1.770501 -7.120325 -3.986245 -4.559865 -3.738204 -6.969618 -3.883051 -5.83958 -4.241013 -6.225729 4.568597 14.94979 1 384
3.154895 3.592643 2.580256 3.44809 2.814037 2.641175 3.904432 0.7074892 0.833334 0.9396101 0.5149167 -0.8890615 0.5732734 4.380583 4.906958 3.80436 3.301679 2.333383 -3.448203 -0.4359841 1.981089 3.497564 -1.838953 0.1111488 -5.019458 -1.886104 0.1977084 -2.595413 0.05856916 -6.485022 -1.752769 -7.030313 -3.903465 -4.584595 -3.704273 -6.880394 -3.822209 -5.890083 -4.220654 -6.143547 4.780661 15.47277 1 388
1.427319 3.584146 2.611524 3.441918 2.925401 2.822385 3.942278 0.6839764 0.8292827 1.23562 0.5568901 -0.4611587 0.5926847 4.437056 5.334781 3.977405 3.369096 2.283776 -2.853762 -0.6768408 1.848275 3.440731 -1.751833 -0.02745003 -4.461224 -2.012393 0.1508036 -2.614201 -0.02143345 -6.315727 -1.743451 -6.674207 -3.844 -4.488554 -3.669774 -6.581877 -3.755814 -5.830644 -4.178463 -5.898114 4.807924 13.5577 1 392
0.8049476 3.6861 2.81354 3.547374 3.089216 2.931309 4.070947 1.025022 0.6934131 1.779541 0.6086769 0.3587077 0.6531014 4.498039 5.637136 4.083811 3.602092 2.26378 -1.88414 -0.8284889 1.865297 3.359585 -1.407576 -0.1018785 -3.993407 -2.019598 0.07072024 -2.523794 -0.1804354 -6.043524 -1.740212 -6.121296 -3.934212 -4.446161 -3.721925 -6.218092 -3.806514 -5.642663 -4.180518 -5.735662 4.334329 8.753437 1 396
1.168159 3.820289 3.072256 3.683296 3.260201 3.021774 4.175947 1.361525 0.5863533 2.35907 0.6253365 1.004058 0.7060775 4.540293 5.67038 4.072867 3.851283 2.210494 -1.035265 -0.918556 2.003128 3.282251 -1.046147 -0.1284027 -3.65871 -1.812822 0.02247568 -2.385373 -0.366279 -5.803347 -1.729729 -5.624956 -4.099418 -4.477284 -3.834959 -5.923831 -3.920101 -5.420441 -4.225919 -5.712391 3.844921 3.781558 1 400
1.705954 3.823282 3.052468 3.703021 3.323485 2.991371 4.162426 1.304726 0.6222126 2.782217 0.5586607 1.078411 0.6567746 4.547679 5.617643 4.043954 3.940942 2.119959 -0.6658205 -0.8670889 2.136807 3.274038 -0.8501892 -0.06083423 -3.473306 -1.405477 0.06792571 -2.271154 -0.4783947 -5.71459 -1.641552 -5.354077 -4.14296 -4.434784 -3.886356 -5.756954 -3.936093 -5.269751 -4.234528 -5.681747 3.879055 0.7326639 1 404
2.198078 3.753736 2.672385 3.670759 3.308047 2.97415 4.164825 0.9423772 0.6240907 2.815355 0.4948317 0.4111455 0.5649928 4.452049 5.588989 4.030708 3.78399 2.018675 -1.174977 -0.5972849 2.109763 3.270648 -0.9570056 0.1045249 -3.790251 -0.9655586 0.1264593 -2.266816 -0.5182962 -5.885905 -1.526953 -5.490362 -4.072339 -4.32332 -3.855316 -5.759091 -3.857674 -5.230636 -4.18733 -5.575142 4.145091 1.808603 1 408
3.231928 3.78796 2.103757 3.745759 3.331978 3.089487 4.277707 0.5016394 0.390304 2.374574 0.6674597 -0.805986 0.6907625 4.219498 5.439289 3.903287 3.421585 1.911441 -2.603091 -0.08482935 1.929469 3.145153 -1.488257 0.2488938 -4.797725 -0.667535 0.1221494 -2.423785 -0.5975249 -6.280171 -1.511903 -6.043218 -4.01835 -4.336445 -3.821301 -5.912149 -3.806475 -5.287875 -4.13561 -5.498386 4.165671 7.420862 1 412
4.740329 3.938072 1.655286 3.914972 3.411104 3.229059 4.396411 0.2663569 0.06013136 1.762867 0.9047248 -1.699094 0.9074963 3.99291 5.108655 3.638869 3.070297 1.789318 -3.94737 0.3971675 1.826361 2.962517 -2.198161 0.2424051 -5.792437 -0.6169887 0.1540318 -2.626414 -0.7314282 -6.600854 -1.598102 -6.60578 -4.000212 -4.515337 -3.796155 -6.110875 -3.811584 -5.388748 -4.095308 -5.542302 3.894447 13.41341 1 416
5.389021 4.042904 1.530882 4.013437 3.492981 3.263466 4.422003 0.3706351 -0.2210492 1.220503 0.8539934 -1.582174 0.8798222 3.952445 4.769897 3.419171 2.911569 1.662275 -4.245999 0.5322031 2.019361 2.934806 -2.600344 0.08688519 -5.998906 -0.8905163 0.3709248 -2.65178 -0.7833151 -6.599589 -1.7598 -6.769617 -3.986532 -4.617315 -3.759612 -6.193934 -3.811437 -5.426291 -4.033196 -5.590271 3.508188 15.87423 1 420
4.419304 3.957878 1.694417 3.902121 3.555871 3.248189 4.349253 0.454575 -0.4908765 0.6744705 0.5943143 -0.8161216 0.6546596 4.076449 4.593051 3.370782 2.853312 1.576934 -3.74189 0.4223793 2.465712 3.153445 -2.570518 -0.08079273 -5.603295 -1.392158 0.7994474 -2.439659 -0.643904 -6.37991 -1.969676 -6.568225 -3.908228 -4.414694 -3.668681 -6.10661 -3.732203 -5.353375 -3.887022 -5.43477 3.299379 15.08659 1 424
2.602532 3.773514 1.953884 3.677319 3.57604 3.326837 4.236312 0.268742 -0.805626 0.1200358 0.324692 -0.1590442 0.3813477 4.253016 4.61308 3.469281 2.745036 1.571302 -3.1936 0.3544638 2.933293 3.541402 -2.353075 -0.124158 -5.239943 -1.870626 1.361093 -2.127944 -0.3074633 -6.235019 -2.092585 -6.330739 -3.697059 -3.994592 -3.44708 -6.051765 -3.538388 -5.278952 -3.611988 -5.065453 3.330599 13.11137 1 428
1.195229 3.6631 2.071415 3.540148 3.546062 3.493576 4.13649 0.03722373 -1.182639 -0.2067607 0.04744197 -0.01705712 0.07637116 4.417208 4.691828 3.590534 2.627383 1.579432 -3.027584 0.1791228 3.261492 3.940111 -2.127436 -0.1160962 -5.121751 -2.260357 1.912356 -1.883132 0.09875817 -6.314598 -2.088293 -6.353598 -3.426307 -3.658396 -3.162746 -6.248497 -3.296713 -5.310835 -3.289013 -4.719261 3.319635 12.38617 1 432
1.001254 3.593557 2.055168 3.460567 3.471121 3.53283 3.98544 -0.02322349 -1.582186 -0.1486385 -0.2231156 -0.4821144 -0.1944231 4.497985 4.601863 3.552442 2.623156 1.504165 -3.249998 -0.5563144 3.496825 4.196427 -1.838827 -0.2601222 -5.006949 -2.629077 2.358634 -1.731903 0.3709428 -6.420781 -2.092398 -6.5923 -3.225983 -3.551118 -2.96528 -6.570808 -3.1194 -5.347933 -3.057832 -4.577271 3.052293 14.09342 1 436
1.661539 3.426028 2.171909 3.265335 3.335134 3.158108 3.718258 0.1269122 -1.893287 0.1372562 -0.4297578 -1.164536 -0.3720277 4.484262 4.343763 3.38867 2.780964 1.392649 -3.525986 -1.796144 3.760016 4.315073 -1.398487 -0.5605854 -4.795774 -2.894168 2.720623 -1.550017 0.4815611 -6.309843 -2.158535 -6.739119 -3.098231 -3.527352 -2.836838 -6.747918 -2.995358 -5.229161 -2.914253 -4.541995 2.607472 16.2039 1 440
1.947835 3.11873 2.444711 2.920966 3.169663 2.3623 3.407059 0.3268939 -2.022487 0.4065059 -0.5556695 -1.354615 -0.4883949 4.441229 4.138308 3.374381 3.011191 1.371185 -3.533711 -2.827573 4.029237 4.447528 -0.944347 -0.8057572 -4.758291 -2.985751 3.018982 -1.248332 0.5818403 -6.092672 -2.187391 -6.673691 -2.945359 -3.374861 -2.665442 -6.731758 -2.812639 -5.008323 -2.753938 -4.410113 2.281166 16.3814 1 444
1.373573 2.80818 2.605659 2.600332 3.084517 1.59988 3.191848 0.3179125 -2.030756 0.5508358 -0.6259942 -1.133352 -0.5995843 4.394773 4.109269 3.578623 3.163525 1.466123 -3.441718 -3.031498 4.198289 4.649089 -0.7171333 -0.8311719 -5.039068 -2.943319 3.247588 -0.8848578 0.7241459 -5.984135 -2.11837 -6.570326 -2.780134 -3.083469 -2.489183 -6.64963 -2.607235 -4.882921 -2.596738 -4.171657 2.256496 15.29156 1 448
0.6965342 2.705153 2.538607 2.511374 3.164074 1.276181 3.155476 0.1578898 -2.039417 0.5851547 -0.7179387 -1.287921 -0.7463381 4.359911 4.173369 3.771372 3.204047 1.590703 -3.697994 -2.589934 4.234202 4.774704 -0.7347801 -0.6881695 -5.447166 -2.842556 3.366107 -0.6278728 0.7808418 -5.98826 -2.052039 -6.666325 -2.759357 -2.883594 -2.464692 -6.651638 -2.574202 -4.956967 -2.584941 -4.05579 2.366009 15.64617 1 452
0.8732374 2.871797 2.362278 2.695748 3.363536 1.399556 3.270549 0.1506475 -2.068576 0.5819594 -0.8310977 -1.795239 -0.8871348 4.3477 4.158752 3.771708 3.205767 1.654164 -4.266455 -2.117419 4.144726 4.677232 -0.8467594 -0.5474231 -5.802778 -2.794102 3.289728 -0.6174204 0.6135024 -6.004786 -2.110581 -6.998576 -2.985813 -2.992062 -2.667728 -6.796064 -2.796584 -5.17426 -2.803193 -4.27185 2.303342 18.44 1 456
1.934423 3.165044 2.240791 3.01122 3.604797 1.815156 3.480767 0.367963 -2.06279 0.6811931 -0.8258965 -1.864677 -0.868144 4.304358 4.08706 3.666927 3.237086 1.673534 -4.614901 -1.868967 3.959364 4.420782 -0.9723039 -0.4933233 -6.079612 -2.845375 3.011928 -0.8084774 0.2612074 -6.01234 -2.267804 -7.373381 -3.373165 -3.341518 -3.037641 -7.005943 -3.17069 -5.47653 -3.182981 -4.776993 2.03401 21.36588 1 460
2.886532 3.468771 2.211729 3.350659 3.925388 2.343921 3.779738 0.5904868 -2.065434 0.9929079 -0.5664949 -1.348885 -0.5621257 4.219235 4.230253 3.72318 3.297395 1.768416 -4.478868 -1.686879 3.746043 4.212678 -1.083045 -0.49618 -6.215643 -2.989659 2.639352 -1.032123 -0.1077971 -6.064871 -2.448606 -7.632369 -3.776534 -3.678633 -3.471211 -7.187378 -3.586318 -5.89008 -3.601308 -5.341338 1.766365 22.15871 1 464
3.048027 3.864148 2.098773 3.796239 4.371605 2.844946 4.171795 0.5593595 -2.195381 1.288097 -0.1151901 -0.6895638 -0.09058458 4.155501 4.656295 4.049269 3.322336 1.998666 -3.996104 -1.344902 3.513803 4.144156 -1.107607 -0.4889933 -6.020956 -3.198256 2.281861 -1.229032 -0.4005487 -6.138541 -2.627107 -7.781711 -4.142283 -3.898117 -3.897862 -7.373872 -3.983543 -6.408744 -4.000951 -5.808633 1.672979 21.10064 1 468
2.947833 4.341853 1.78931 4.334434 4.836728 3.107483 4.566028 0.255587 -2.337426 1.355181 0.2676021 -0.1161408 0.2783125 4.100657 5.041612 4.440368 3.308048 2.249914 -3.277663 -0.8461769 3.244591 4.118048 -0.9272634 -0.4534205 -5.306159 -3.345512 1.95995 -1.440537 -0.6368288 -6.119175 -2.764732 -7.858636 -4.434171 -4.095297 -4.254131 -7.64226 -4.297286 -6.953637 -4.339967 -6.2184 1.797047 19.3242 1 472
3.234484 4.709227 1.522254 4.748933 5.165802 2.931758 4.834664 0.0587811 -2.330876 1.497748 0.4460565 0.2612355 0.4609658 4.030133 5.126998 4.686531 3.345637 2.428324 -2.319132 -0.4205435 3.038991 4.076195 -0.443573 -0.4150409 -4.103517 -3.290404 1.688861 -1.589341 -0.8183844 -5.891756 -2.778477 -7.736882 -4.592839 -4.340776 -4.459383 -7.872729 -4.476355 -7.369911 -4.532264 -6.626039 1.905117 16.20939 1 476
3.573135 4.876648 1.58814 4.918053 5.28812 2.51726 4.937934 0.2145041 -2.263898 1.931951 0.5097196 0.3487461 0.5374729 3.988914 4.94968 4.796494 3.465679 2.616568 -1.209162 -0.2848529 2.981154 4.089351 0.3073903 -0.3357722 -2.732046 -3.017821 1.563356 -1.552583 -0.8814575 -5.447593 -2.593358 -7.281946 -4.557812 -4.562112 -4.435154 -7.898044 -4.464687 -7.51903 -4.488779 -6.926764 1.788012 10.66462 1 480
3.332325 4.824788 2.050575 4.814405 5.209418 2.229833 4.847696 0.4433159 -2.149378 2.283549 0.5768098 0.2119518 0.5996965 3.927567 4.626898 4.846958 3.520024 2.819251 -0.326905 -0.6090567 2.942468 4.168828 1.09951 -0.22717 -1.621473 -2.738817 1.591858 -1.39194 -0.819995 -5.013382 -2.277225 -6.757351 -4.339238 -4.65305 -4.215374 -7.800881 -4.271115 -7.506151 -4.257109 -6.953686 1.645139 5.316422 1 484
2.318433 4.485446 2.696989 4.388721 4.954822 1.919289 4.534217 0.3909346 -1.855104 2.072123 0.6788855 -0.2403475 0.6913049 3.76739 4.237062 4.87399 3.309586 2.892084 -0.2665079 -1.316351 2.780733 4.249569 1.602776 -0.1781756 -1.128822 -2.667544 1.712031 -1.278179 -0.6931976 -4.808144 -1.977736 -6.583897 -4.056963 -4.608186 -3.951654 -7.693523 -4.008431 -7.491433 -3.98952 -6.65344 1.811929 5.078862 1 488
0.8738871 3.924516 3.097811 3.744168 4.523213 1.163255 4.083452 -0.007963354 -1.405662 1.256525 0.7300041 -1.183398 0.7553661 3.594963 3.823839 4.861545 2.834975 2.823488 -1.267208 -1.776439 2.562973 4.30252 1.591684 -0.09717941 -1.456559 -2.632291 1.956105 -1.306057 -0.515719 -4.802312 -1.696317 -6.795299 -3.79625 -4.531678 -3.709639 -7.53835 -3.726511 -7.418585 -3.736071 -6.15231 2.428566 10.61892 1 492
-0.1244725 3.466943 3.135242 3.22907 4.016287 0.2339423 3.71208 -0.4405241 -0.9817978 0.2833179 0.7408173 -2.106563 0.7907847 3.524589 3.406448 4.778549 2.313271 2.755065 -2.65254 -1.494928 2.407119 4.33453 1.144277 0.1482899 -2.46958 -2.443623 2.309429 -1.461794 -0.3041083 -4.896753 -1.345448 -7.075672 -3.558435 -4.551395 -3.465845 -7.370465 -3.442848 -7.22602 -3.493746 -5.711514 3.204602 16.6834 1 496
-0.3481043 3.360065 2.972682 3.101533 3.638289 -0.1984668 3.587345 -0.6080061 -0.7357203 -0.3412279 0.8293507 -2.321306 0.867979 3.499184 3.057658 4.654909 1.930233 2.72335 -3.530289 -0.8734747 2.308955 4.362571 0.5940837 0.4257223 -3.614227 -2.276257 2.619981 -1.644746 -0.1484587 -4.96898 -1.004731 -7.16301 -3.363592 -4.660115 -3.267097 -7.217493 -3.252361 -6.98346 -3.328722 -5.532234 3.641307 19.20683 1 500
-0.2846624 3.553445 2.634521 3.324826 3.5344 0.08217304 3.693272 -0.6027264 -0.7467813 -0.5637137 0.8782236 -1.995278 0.8857145 3.389291 2.945006 4.559702 1.693311 2.624919 -3.837225 -0.4600026 2.189897 4.380565 0.1873685 0.5440805 -4.416592 -2.276102 2.78418 -1.755964 -0.1339777 -4.915895 -0.8983955 -7.092342 -3.297265 -4.715421 -3.212332 -6.974675 -3.24179 -6.81941 -3.326894 -5.571244 3.561261 19.69253 1 504
0.09141194 3.890876 2.288196 3.720001 3.769044 0.8167766 3.933454 -0.5514343 -1.005241 -0.6311845 0.7692158 -1.598398 0.7561865 3.234257 3.165912 4.586207 1.546855 2.478064 -3.916546 -0.1860967 2.004156 4.382332 -0.0972131 0.5293956 -4.908886 -2.337628 2.827515 -1.792292 -0.2402329 -4.807344 -1.036172 -7.010684 -3.423482 -4.638764 -3.334786 -6.67466 -3.422718 -6.830291 -3.506109 -5.649088 3.153351 19.65603 1 508
1.07011 4.173075 2.143988 4.05072 4.168977 1.424915 4.176497 -0.4934871 -1.297071 -0.601122 0.6155399 -1.161364 0.5968099 3.158948 3.521154 4.750553 1.475305 2.42304 -3.779989 0.07944584 1.820924 4.395382 -0.2989351 0.5143951 -5.178833 -2.291577 2.848281 -1.780224 -0.3819193 -4.70443 -1.18309 -6.936783 -3.710328 -4.511749 -3.596216 -6.491449 -3.725095 -6.943475 -3.793789 -5.710024 2.772629 18.39024 1 512
2.137227 4.356827 2.086173 4.26971 4.434706 1.571814 4.330805 -0.4459656 -1.38779 -0.4343287 0.4831082 -0.6419865 0.4878756 3.138481 3.662554 4.913537 1.447502 2.476379 -3.316233 0.1790586 1.744525 4.423106 -0.3220896 0.5526568 -4.97642 -2.128058 2.936472 -1.742293 -0.517812 -4.500628 -1.249091 -6.802097 -4.088336 -4.517239 -3.957078 -6.437222 -4.056496 -7.011755 -4.117145 -5.871132 2.59092 16.29779 1 516
2.56434 4.613451 1.962741 4.554677 4.572829 1.516544 4.441982 -0.3371268 -1.324778 -0.2254758 0.3823045 -0.2862955 0.4200365 3.095487 3.556013 4.987146 1.403103 2.558481 -2.702146 0.006772952 1.756799 4.445496 -0.1247292 0.5937546 -4.233564 -2.052382 3.061593 -1.747155 -0.6411607 -4.168416 -1.339284 -6.601076 -4.470145 -4.702725 -4.349409 -6.366002 -4.383173 -7.017936 -4.447916 -6.195315 2.453574 14.76921 1 520
2.414257 4.951984 1.833551 4.913089 4.75559 1.670536 4.549292 -0.1493459 -1.34646 0.02924865 0.2552353 -0.2210455 0.3058593 3.055985 3.541685 5.0604 1.329784 2.647891 -2.247242 -0.4930673 1.774298 4.511663 0.1542531 0.577306 -3.447866 -2.126402 3.174828 -1.815768 -0.7105809 -3.942907 -1.449892 -6.477059 -4.751962 -4.868788 -4.647806 -6.294905 -4.656243 -7.059889 -4.715029 -6.524827 2.166217 14.27411 1 524
2.139613 5.211997 1.851541 5.174867 5.002208 2.280602 4.644008 -0.00602306 -1.579692 0.3459719 -0.006231633 -0.3976662 0.02697802 3.102012 3.848569 5.240648 1.261856 2.74764 -2.140661 -1.228885 1.745581 4.676786 0.29402 0.5470431 -3.129691 -2.110182 3.295512 -1.883181 -0.7067873 -4.012848 -1.462767 -6.552986 -4.898903 -4.888688 -4.779432 -6.374567 -4.786001 -7.184088 -4.836972 -6.684021 1.808955 14.40392 1 528
1.744066 5.289468 2.121607 5.222579 5.226233 3.092574 4.741982 -0.0650079 -1.811459 0.4851964 -0.237964 -0.7944038 -0.2387503 3.223876 4.273314 5.470592 1.216697 2.806769 -2.297475 -1.731103 1.675634 4.842499 0.2764259 0.5728821 -3.144738 -1.906974 3.386716 -1.915985 -0.6955543 -4.206198 -1.359404 -6.677752 -4.934786 -4.860416 -4.783311 -6.514511 -4.780448 -7.294069 -4.841981 -6.702985 1.757704 14.36843 1 532
1.058924 5.164083 2.534214 5.046049 5.298073 3.406573 4.798125 -0.3555733 -1.710801 0.4196828 -0.1710887 -1.232022 -0.1676274 3.298139 4.451503 5.596208 1.207631 2.829718 -2.288629 -1.534574 1.64951 4.867163 0.3479327 0.6528478 -2.872288 -1.681437 3.409217 -1.9341 -0.7278248 -4.213262 -1.19728 -6.59584 -4.895933 -4.898541 -4.753392 -6.527956 -4.73723 -7.311264 -4.811008 -6.748974 2.22647 13.10463 1 536
0.2557155 4.953874 2.786816 4.799597 5.211308 2.966711 4.769514 -0.7901108 -1.352153 0.4782991 0.1140429 -1.674743 0.1787243 3.305786 4.355093 5.634634 1.27789 2.934189 -1.939096 -0.665419 1.739945 4.788554 0.6613498 0.7591062 -2.04079 -1.589804 3.40589 -1.93224 -0.7822264 -3.968594 -1.061571 -6.331531 -4.887551 -5.032324 -4.797568 -6.433655 -4.74868 -7.327096 -4.828415 -6.947275 3.0063 10.74745 1 540
-0.3790117 4.835993 2.819069 4.673612 5.150054 2.286806 4.725044 -1.214776 -1.17658 0.7693509 0.4067891 -2.296006 0.5523819 3.359016 4.29709 5.761586 1.431452 3.18075 -1.646567 0.3888684 1.925568 4.776264 1.066 0.8470631 -1.202981 -1.682584 3.418456 -1.854339 -0.8130863 -3.701983 -1.042796 -6.140026 -4.978649 -5.156914 -4.916157 -6.348553 -4.842953 -7.457214 -4.932802 -7.218068 3.663722 8.667146 1 544
-0.3622814 4.843738 2.815728 4.689627 5.177879 1.961276 4.710539 -1.427232 -1.373605 1.085974 0.6761823 -2.991169 0.8853994 3.464704 4.409247 5.988919 1.56337 3.462157 -1.865778 1.203949 2.083984 4.884907 1.226349 0.8899132 -1.180637 -1.890164 3.411763 -1.738689 -0.7927843 -3.700806 -1.163645 -6.261272 -5.136245 -5.157322 -5.02802 -6.397833 -4.987065 -7.710762 -5.072633 -7.40207 3.847744 8.356642 1 548
0.8143926 4.900502 2.820802 4.762322 5.195575 2.056643 4.689105 -1.276627 -1.634375 1.283824 0.8080982 -3.331864 1.023638 3.536241 4.515838 6.095856 1.626036 3.591784 -2.602729 1.510038 2.116243 4.980412 0.9753332 0.875841 -2.170878 -2.148879 3.34456 -1.731165 -0.7578697 -4.031909 -1.394478 -6.743758 -5.317433 -5.183774 -5.135795 -6.625972 -5.143952 -7.996997 -5.200608 -7.503581 3.566588 10.84291 1 552
2.527517 4.89335 2.814683 4.762238 5.129358 2.095182 4.581705 -0.7834902 -1.666773 1.350588 0.6318269 -2.988705 0.8027283 3.570453 4.505795 5.903723 1.74545 3.500721 -3.31669 0.9591604 2.129068 4.966499 0.5689292 0.7696096 -3.490331 -2.427752 3.303328 -1.816646 -0.7420475 -4.412705 -1.624215 -7.250003 -5.372544 -5.393034 -5.169194 -6.8617 -5.190923 -8.087724 -5.198127 -7.541666 3.07747 14.74487 1 556
3.572453 4.766063 2.802062 4.625107 4.956076 1.673673 4.335114 -0.2209383 -1.60332 1.237635 0.3108532 -2.219719 0.4617854 3.589758 4.405162 5.466124 1.964702 3.305974 -3.530042 -0.2671036 2.248198 4.886542 0.3562358 0.6211892 -4.267357 -2.636345 3.397382 -1.845818 -0.6904635 -4.492775 -1.726028 -7.37885 -5.18854 -5.616995 -5.011461 -6.894944 -5.033198 -7.856812 -4.96073 -7.43708 2.562938 17.33353 1 560
3.604813 4.575197 2.780654 4.41231 4.716378 0.9610216 3.991724 0.09875369 -1.644335 0.9620494 0.2071269 -1.635394 0.3579102 3.548429 4.277224 4.986733 2.152602 3.168375 -3.344053 -1.338389 2.394975 4.794157 0.3939018 0.5559146 -4.278564 -2.754585 3.610656 -1.788308 -0.5339985 -4.330874 -1.694722 -7.183576 -4.887657 -5.632101 -4.730552 -6.744267 -4.764372 -7.531479 -4.619265 -7.166856 2.127173 17.92517 1 564
3.012806 4.388304 2.800716 4.196955 4.499589 0.4523363 3.678954 0.08127325 -1.705596 0.6559746 0.3742539 -1.511049 0.4884177 3.412332 4.199498 4.645314 2.231676 3.138928 -3.119858 -1.600304 2.442146 4.712952 0.5175731 0.5829665 -3.952088 -2.808765 3.804579 -1.71903 -0.2991147 -4.271188 -1.612355 -6.970453 -4.586936 -5.435905 -4.433515 -6.584123 -4.486448 -7.36294 -4.32661 -6.838023 1.93465 17.37215 1 568
2.518762 4.348171 2.856209 4.138384 4.37306 0.5706096 3.577371 -0.1403324 -1.613765 0.3098966 0.4570504 -1.708004 0.5439515 3.215044 4.115254 4.479753 2.210999 3.149528 -3.219219 -0.9851652 2.353349 4.626491 0.5297897 0.5845567 -3.933272 -2.736341 3.795865 -1.731194 -0.1336651 -4.432143 -1.575654 -6.978228 -4.368807 -5.277681 -4.211496 -6.574255 -4.287062 -7.375937 -4.150682 -6.672699 2.048995 17.30244 1 572
2.637694 4.57337 2.90521 4.357515 4.292593 1.297932 3.727691 -0.2476495 -1.344915 -0.1263907 0.2484303 -1.89344 0.3401373 3.036408 3.884449 4.414659 2.144064 3.134779 -3.690558 -0.1080039 2.178766 4.467143 0.3972089 0.4621927 -4.421196 -2.604553 3.557134 -1.876284 -0.1782493 -4.65841 -1.616475 -7.252989 -4.335882 -5.406945 -4.160457 -6.760933 -4.253059 -7.48178 -4.13104 -6.812844 2.227959 19.07675 1 576
2.998554 4.865224 3.036331 4.639707 4.179481 2.124427 3.927495 -0.08260059 -0.9622712 -0.3668257 0.04884893 -1.699309 0.1253449 2.956555 3.596176 4.424678 2.151787 3.110645 -3.967107 0.2934407 2.006209 4.238988 0.3158771 0.2336686 -4.900282 -2.60056 3.221709 -2.103096 -0.3912581 -4.81554 -1.663918 -7.53109 -4.375195 -5.723431 -4.202791 -7.037252 -4.287794 -7.585456 -4.159215 -7.119186 2.337099 20.74207 1 580
2.771349 4.923043 3.319964 4.676865 4.080092 2.586632 3.983181 0.1103054 -0.5370538 -0.135361 0.1247379 -1.115951 0.1636453 3.030956 3.549693 4.559206 2.29008 3.131612 -3.651304 0.07703595 1.872621 4.068548 0.4106141 0.00577867 -4.965683 -2.663915 2.900346 -2.290848 -0.6004655 -4.881034 -1.660203 -7.556098 -4.269537 -5.93779 -4.160885 -7.250369 -4.215516 -7.666576 -4.090583 -7.316496 2.628253 19.70108 1 584
1.952 4.788239 3.660441 4.515959 4.087137 2.695863 3.931854 0.2936149 -0.2974744 0.382104 0.2619559 -0.5236232 0.2612746 3.241047 3.880687 4.817569 2.51254 3.197543 -3.037876 -0.5509808 1.782356 4.01759 0.6246515 -0.1950877 -4.710746 -2.663902 2.636112 -2.32405 -0.7352833 -4.866024 -1.691998 -7.384738 -4.11142 -5.935657 -4.045492 -7.315239 -4.07566 -7.717918 -3.964771 -7.284469 2.885026 17.00683 1 588
1.388951 4.733399 3.915516 4.445921 4.170616 2.679993 3.915031 0.7126098 -0.3806066 0.8565032 0.2153274 -0.2320775 0.192876 3.435499 4.338317 5.072381 2.769079 3.237684 -2.556367 -1.248038 1.762722 3.990885 0.9214588 -0.4362418 -4.349342 -2.686591 2.427057 -2.195194 -0.8858316 -4.804403 -1.871995 -7.221636 -4.144835 -5.8414 -4.027352 -7.284178 -4.053702 -7.691266 -3.907293 -7.139684 2.575493 15.20074 1 592
1.483708 4.863751 3.950672 4.58156 4.234431 2.621894 3.97059 1.183184 -0.4989663 1.151567 0.03395757 -0.331472 0.01611983 3.492857 4.548186 5.156394 2.992091 3.215234 -2.383671 -1.60815 1.806916 3.894136 1.235112 -0.6840278 -4.045359 -2.740871 2.280803 -2.014809 -1.115359 -4.693986 -2.128302 -7.126307 -4.301928 -5.813335 -4.122925 -7.234683 -4.171909 -7.541208 -3.937095 -7.070363 2.050881 14.8008 1 596
2.116304 5.063854 3.698226 4.808608 4.294049 2.559945 4.069825 1.399809 -0.4551398 1.338926 -0.1822609 -0.7010732 -0.1914147 3.425658 4.463739 5.069293 3.088758 3.185871 -2.423933 -1.618573 1.809663 3.713174 1.415427 -0.848048 -3.778515 -2.716751 2.1807 -1.904258 -1.365203 -4.526102 -2.350024 -7.028091 -4.419384 -5.863685 -4.238019 -7.133539 -4.321629 -7.302574 -4.021782 -7.149377 1.803576 15.03393 1 600
3.004071 5.156883 3.363112 4.943719 4.392445 2.532592 4.148682 1.351704 -0.3828362 1.501096 -0.2800554 -0.9508454 -0.2630709 3.286019 4.354741 5.003096 3.006776 3.236388 -2.381553 -1.566588 1.665117 3.508898 1.431286 -0.9182978 -3.4272 -2.638407 2.062302 -1.889347 -1.538404 -4.384491 -2.532563 -6.895889 -4.52878 -5.885717 -4.374071 -6.963429 -4.456006 -7.115062 -4.149547 -7.251606 1.762874 15.06199 1 604
3.529919 5.094635 3.226838 4.917263 4.442282 2.493698 4.132348 1.118843 -0.3535058 1.660402 -0.05535147 -0.7503508 0.002011213 3.167988 4.424802 5.110605 2.819069 3.3999 -2.019324 -1.462068 1.416866 3.40045 1.405266 -0.9098588 -3.066972 -2.618431 1.948219 -1.873017 -1.580153 -4.291792 -2.664306 -6.671866 -4.61462 -5.777742 -4.483263 -6.76392 -4.545533 -7.048482 -4.237673 -7.175591 1.875449 13.37693 1 608
3.39774 4.983872 3.278776 4.823346 4.357765 2.241543 4.053822 0.8805889 -0.3263383 1.836177 0.4232081 -0.2630641 0.498412 3.159708 4.547908 5.34016 2.6663 3.638884 -1.51744 -1.13279 1.211127 3.430995 1.393555 -0.8052394 -2.979873 -2.685877 1.943223 -1.805691 -1.50412 -4.172318 -2.6867 -6.332764 -4.596897 -5.603077 -4.463266 -6.543337 -4.549347 -6.996762 -4.193185 -6.903857 2.081875 9.873047 1 612
3.095365 4.843643 3.396622 4.681355 4.199196 1.512796 3.973133 0.7068948 -0.1921736 1.883596 0.8284962 0.0303825 0.9057073 3.274335 4.494163 5.585201 2.597742 3.905684 -1.321291 -0.70147 1.106403 3.525749 1.29354 -0.5558261 -3.312146 -2.629262 2.071132 -1.8095 -1.347972 -4.034055 -2.50383 -6.003149 -4.483816 -5.540704 -4.317968 -6.32004 -4.445515 -6.837554 -4.044297 -6.634056 2.442021 6.681473 1 616
3.134066 4.691078 3.487875 4.520217 4.144289 0.6038421 3.975723 0.5886342 0.08519211 1.73659 0.9712108 -0.1348657 1.039315 3.481544 4.375818 5.870437 2.541152 4.146927 -1.667165 -0.4735898 0.9916497 3.577126 0.9415445 -0.2619255 -3.893188 -2.410624 2.158695 -2.061468 -1.194768 -4.060189 -2.222094 -5.952977 -4.370788 -5.714943 -4.170575 -6.260159 -4.305572 -6.725441 -3.914833 -6.588049 2.993057 6.327269 1 620
3.597372 4.783302 3.467721 4.623053 4.407481 0.4853866 4.257197 0.6446163 0.2796417 1.611771 0.94972 -0.5724784 0.9990337 3.688814 4.496227 6.264116 2.376364 4.292448 -2.52003 -0.5307861 0.7073126 3.513018 0.2370908 -0.1868412 -4.597618 -2.501367 1.968805 -2.636608 -1.19646 -4.51377 -2.211572 -6.492106 -4.446388 -6.148277 -4.235139 -6.613801 -4.354933 -6.99338 -3.985822 -6.828148 3.324547 10.59051 1 624
4.429351 5.245929 3.39269 5.122118 4.983201 1.516762 4.834914 0.8012314 0.231416 1.648882 0.9627113 -0.9838304 1.000086 3.756719 4.860789 6.718521 2.081518 4.341602 -3.575154 -0.6071386 0.2242397 3.34463 -0.7073484 -0.3523266 -5.411851 -2.985962 1.517739 -3.364915 -1.358984 -5.329574 -2.525235 -7.445556 -4.75802 -6.668284 -4.551634 -7.284572 -4.663952 -7.578794 -4.305754 -7.156503 3.211378 17.38891 1 628
5.030017 5.779322 3.388271 5.69039 5.500873 2.786017 5.389827 0.9414846 0.08863068 1.872445 1.115382 -1.229527 1.152309 3.663926 5.184887 7.073539 1.813105 4.366361 -4.283225 -0.4690601 -0.2471406 3.144876 -1.547071 -0.5077 -6.08776 -3.299604 1.123733 -3.902299 -1.453329 -6.019603 -2.780185 -8.110662 -5.028132 -7.007884 -4.816697 -7.792043 -4.934047 -8.005454 -4.600101 -7.299054 2.890978 21.42419 1 632
4.259743 6.067372 3.576125 5.9746 5.662735 3.475075 5.609782 1.26474 0.0241417 2.296496 1.208264 -1.15923 1.255678 3.573719 5.318919 7.203793 1.770157 4.386826 -4.289079 -0.4012639 -0.4161493 2.996799 -1.958695 -0.5472095 -6.293742 -3.31649 1.07649 -4.07866 -1.318152 -6.227494 -2.765002 -8.110229 -5.014318 -7.114722 -4.780245 -7.865479 -4.89493 -8.013111 -4.590218 -7.211152 2.501218 20.86299 1 636
2.046011 6.077384 3.979409 5.938777 5.564222 3.7546 5.465429 1.816867 -0.004785668 2.758829 0.9845297 -0.8153317 1.037878 3.607832 5.399616 7.146123 1.973099 4.339126 -3.8509 -0.8754629 -0.2633162 2.959225 -1.952941 -0.5970834 -6.075508 -3.428266 1.354547 -3.986633 -1.039748 -6.044744 -2.628738 -7.712378 -4.782704 -7.083082 -4.525046 -7.617872 -4.618499 -7.750348 -4.312443 -6.990221 2.027866 18.72467 1 640
-0.2000793 5.913623 4.327431 5.729963 5.377967 4.030471 5.137985 2.230129 -0.1666092 2.955324 0.6214502 -0.5703695 0.655865 3.678919 5.551089 7.015865 2.209044 4.173314 -3.620353 -1.953926 -0.03601393 3.012987 -1.857841 -0.7775431 -5.88418 -3.772927 1.741484 -3.790767 -0.7635855 -5.798875 -2.54027 -7.377753 -4.495661 -6.936784 -4.242561 -7.257338 -4.306606 -7.480642 -3.961012 -6.676185 1.556262 18.54869 1 644
-1.190117 5.650772 4.4379 5.446554 5.188214 4.402771 4.835119 2.336279 -0.4107209 2.760982 0.343811 -0.4723831 0.3451521 3.627337 5.69321 6.864169 2.258725 3.919888 -3.795125 -3.165359 0.05520029 3.046211 -1.897924 -1.073275 -5.9287 -4.189788 2.022215 -3.611376 -0.5817264 -5.668186 -2.536316 -7.3363 -4.279598 -6.721829 -4.059534 -6.969649 -4.103215 -7.397546 -3.731858 -6.406703 1.178037 21.11475 1 648
-0.8135685 5.34141 4.497669 5.126774 5.084238 4.735514 4.661604 2.34976 -0.4562177 2.420244 0.03784583 -0.1303161 0.0225498 3.452352 5.712976 6.720701 2.167315 3.670764 -3.770885 -3.755936 0.05427488 2.994293 -1.924724 -1.327394 -5.789772 -4.460299 2.115407 -3.438451 -0.5438566 -5.521857 -2.573483 -7.38895 -4.220288 -6.52594 -4.025383 -6.835875 -4.080461 -7.511471 -3.716147 -6.413254 0.94754 23.11135 1 652
0.3529351 5.097328 4.568234 4.881324 5.076652 4.892082 4.6208 2.433697 -0.2982804 2.324778 -0.3706675 0.5574325 -0.3818333 3.319943 5.615243 6.61085 2.171624 3.50095 -3.072918 -3.591399 0.1740541 2.90693 -1.693371 -1.446917 -5.105791 -4.504755 2.153989 -3.199626 -0.5999297 -5.233641 -2.604998 -7.268668 -4.305292 -6.390681 -4.112978 -6.830905 -4.203608 -7.686539 -3.852064 -6.747622 0.8541971 21.38931 1 656
1.79712 5.030963 4.517206 4.829764 5.122173 4.99817 4.662357 2.567224 -0.233649 2.615479 -0.6988627 1.231819 -0.7002251 3.287129 5.483171 6.528603 2.321351 3.394634 -2.105109 -3.330074 0.4220267 2.823145 -1.265757 -1.569994 -4.187163 -4.465616 2.225891 -2.949991 -0.6801821 -4.903543 -2.704275 -7.094961 -4.48171 -6.338534 -4.275713 -6.921135 -4.394624 -7.893026 -4.074053 -7.253802 0.7116793 17.95205 1 660
2.826061 5.083341 4.343746 4.910752 5.193702 5.079992 4.673965 2.600664 -0.4394579 3.063715 -0.7134326 1.358662 -0.697991 3.274068 5.417369 6.492273 2.446501 3.308022 -1.635917 -3.20187 0.6047558 2.790395 -0.8952509 -1.749024 -3.590765 -4.570936 2.28514 -2.783571 -0.742806 -4.646541 -2.979485 -7.082594 -4.706942 -6.280203 -4.463399 -6.991926 -4.610587 -8.124769 -4.319118 -7.64353 0.4210278 16.69596 1 664
-0.5291042 -0.6627747 -1.061698 0.9176266 -0.640901 -2.314886 -0.103856 1.064921 -1.215977 -0.3299799 -1.147583 -0.2021314 -1.14872 -3.551052 -2.266196 -0.1273957 -3.570419 -1.66948 -0.1296403 -1.086895 -1.239726 0.165679 0.1358776 -0.3744472 0.1822562 -0.3181634 0.3721815 -0.7482039 3.04278 0.2947063 0.2844399 0.2417899 2.076849 0.6128075 3.807491 0.2037264 3.733415 0.4793486 3.076856 2.689883 -4.212079 5.268808 2 -168
-0.453723 -0.4964679 -0.7313923 1.147288 -0.3733757 -2.12593 0.3170897 0.7420292 -1.048338 -0.6533104 -0.9717548 -0.524225 -0.9840135 -3.335604 -2.065171 -0.09693908 -3.558612 -1.555251 -0.4715565 -0.9285362 -1.049929 0.2772765 -0.3248432 0.07637067 -0.3502255 0.1261089 0.2109155 -0.9035328 3.272903 -0.2351539 0.4363897 -0.3325233 2.13474 0.1354571 3.925169 -0.3449187 3.881125 -0.006907501 3.257112 2.538828 -3.784725 5.228591 2 -164
-0.3763442 -0.2439878 -0.4543092 1.389373 -0.08986462 -1.85472 0.9816406 0.6200119 -0.8157915 -0.8382496 -0.7499475 -0.6986909 -0.7687343 -3.167081 -1.865808 0.05928036 -3.537197 -1.328253 -0.6821888 -0.7048947 -0.9436743 0.3178066 -0.8681558 0.3909153 -0.9598531 0.3924036 -0.04283257 -1.139223 3.488174 -0.8225113 0.6306754 -0.9561443 2.182798 -0.4268294 4.030159 -0.9244721 4.016398 -0.5683672 3.411309 2.300225 -3.541406 5.158989 2 -160
-0.2330782 0.004722259 -0.2160391 1.621373 0.1763264 -1.437071 1.519541 0.7875493 -0.4834997 -0.7912055 -0.4704205 -0.6446192 -0.4885525 -2.900426 -1.630218 0.310701 -3.231503 -1.042428 -0.6204434 -0.4158934 -0.8877312 0.3513954 -1.491369 0.5293511 -1.575181 0.4654489 -0.466175 -1.467447 3.624568 -1.43817 0.8462155 -1.603275 2.095279 -1.079362 3.964175 -1.534008 4.011143 -1.200031 3.417435 1.756492 -3.151358 5.01854 2 -156
0.02960324 0.1178842 0.04134904 1.84866 0.391833 -1.033911 1.767787 0.9924192 -0.1084747 -0.6789785 -0.1519722 -0.5518846 -0.1766879 -2.544025 -1.419597 0.5422712 -2.818767 -0.7143642 -0.4795576 -0.1014372 -0.885498 0.3887212 -2.01958 0.591832 -2.016924 0.5055702 -0.966877 -1.875584 3.606814 -1.930205 1.026033 -2.124316 1.892356 -1.665299 3.708975 -2.034109 3.858514 -1.761061 3.276208 0.9774454 -2.406993 4.902153 2 -152
0.1387285 0.1345827 0.2752219 2.101117 0.6196412 -0.801226 1.992105 0.7773772 0.2344265 -0.7344538 0.137365 -0.6161907 0.1238189 -2.235447 -1.266512 0.7080368 -2.630184 -0.326261 -0.5586176 0.194303 -0.9528919 0.4277061 -2.311023 0.664493 -2.229456 0.6013997 -1.371985 -2.337193 3.448896 -2.211519 1.096376 -2.393156 1.702967 -2.029093 3.454068 -2.330659 3.657407 -2.100416 3.103084 0.3934141 -1.470446 4.920174 2 -148
-0.07784643 0.07017402 0.4024747 2.202114 0.9108011 -0.7073789 2.298865 0.1980995 0.5379792 -0.8621725 0.4172028 -0.7402448 0.4512613 -1.968056 -1.091189 0.8681074 -2.604697 0.2026363 -0.7591097 0.4843557 -1.030321 0.582949 -2.612488 0.8833957 -2.514893 0.8546858 -1.512809 -2.810332 3.345397 -2.534688 1.208988 -2.670611 1.628919 -2.408083 3.414894 -2.681741 3.551069 -2.447332 3.049024 0.04551511 -0.4406523 4.865486 2 -144
-0.3468173 -0.1176313 0.3935857 2.098182 1.140601 -0.6360318 2.468782 -0.2861713 0.8316942 -0.8492334 0.7388831 -0.7490532 0.810087 -1.701044 -0.882329 1.053549 -2.493577 0.8722613 -0.8165019 0.7914097 -1.04487 0.894037 -3.138297 1.312523 -3.069109 1.292148 -1.379368 -3.236446 3.450584 -3.091329 1.590459 -3.183433 1.640291 -3.018542 3.554481 -3.243176 3.541351 -3.042816 3.089284 -0.3989788 0.503818 4.656946 2 -140
-0.4416077 -0.37227 0.2553411 2.019561 1.126216 -0.6047318 2.36607 -0.4892412 1.126131 -0.7303371 1.075423 -0.6602305 1.140018 -1.477775 -0.7649359 1.219933 -2.209197 1.559677 -0.7425829 1.102209 -0.9498386 1.300811 -3.679479 1.822416 -3.63703 1.771555 -1.135555 -3.581913 3.683532 -3.660455 2.081803 -3.704677 1.599034 -3.642183 3.650723 -3.770043 3.446075 -3.659232 3.028141 -0.9369011 1.017202 4.458437 2 -136
-0.4611666 -0.5892332 0.00427853 2.004529 0.8816818 -0.7166148 2.00454 -0.5962362 1.396247 -0.6010423 1.400227 -0.5333106 1.430332 -1.283172 -0.8260847 1.313095 -1.840547 2.157865 -0.6113933 1.391793 -0.7091019 1.836001 -4.060727 2.339494 -4.010392 2.254845 -0.8624334 -3.831208 3.896505 -4.051434 2.343338 -4.053265 1.430924 -4.092933 3.604756 -4.127241 3.178009 -4.065113 2.819173 -1.37003 1.157292 4.448139 2 -132
-0.4567415 -0.6247306 -0.3036299 1.811006 0.5824127 -0.9190932 1.512796 -0.8177852 1.691361 -0.4949411 1.749589 -0.4172882 1.747806 -1.013963 -0.9874838 1.309019 -1.589887 2.669372 -0.4553375 1.717291 -0.3068095 2.543803 -4.399422 2.907072 -4.316459 2.833137 -0.4646865 -3.908892 4.055235 -4.372463 2.232848 -4.384422 1.105734 -4.466871 3.457557 -4.452486 2.771484 -4.366951 2.501893 -1.732353 1.375319 4.678429 2 -128
-0.4538701 -0.5350255 -0.5957691 1.356628 0.2895716 -1.166935 1.113362 -1.13756 2.103905 -0.4997602 2.157162 -0.4182204 2.146518 -0.6653441 -1.144256 1.209557 -1.559338 3.165258 -0.4204587 2.155521 0.2279636 3.292455 -4.741931 3.502917 -4.635465 3.463968 0.1115602 -3.751233 4.181614 -4.681079 1.935428 -4.748841 0.6821363 -4.808232 3.249279 -4.775386 2.29521 -4.648844 2.066169 -2.085462 1.805081 4.961901 2 -124
-0.6234562 -0.6417816 -0.8990417 0.8312065 -0.09927513 -1.580994 0.8655321 -1.47295 2.532652 -0.7002049 2.546378 -0.6093327 2.525671 -0.3690971 -1.303377 1.059108 -1.583458 3.696108 -0.6129663 2.578306 0.8286495 3.897824 -4.892597 3.971741 -4.788891 3.954 0.7596247 -3.411272 4.257219 -4.8093 1.880578 -4.90678 0.3916478 -4.940892 3.008437 -4.915534 1.899546 -4.785405 1.638612 -2.310109 2.228026 4.905348 2 -120
-0.9134371 -0.9510662 -1.302798 0.2861264 -0.6471655 -2.085908 0.6166195 -1.734044 2.75153 -0.9622925 2.763527 -0.8734431 2.701084 -0.205455 -1.475926 0.9230388 -1.429647 4.172564 -0.8872808 2.750569 1.393362 4.281685 -4.737096 4.125901 -4.656245 4.131212 1.325516 -2.993381 4.200691 -4.651765 2.167126 -4.754917 0.3406446 -4.75934 2.750301 -4.780142 1.668024 -4.6799 1.374169 -2.299303 2.515843 4.541 2 -116
-1.02294 -1.086925 -1.660039 -0.2927949 -1.159453 -2.277869 0.4127593 -1.822595 2.750054 -1.099214 2.799915 -1.053186 2.68777 -0.07818556 -1.532342 0.8848114 -1.087023 4.480983 -1.067393 2.70229 1.861925 4.483942 -4.531089 4.059018 -4.487371 4.096642 1.738971 -2.593499 3.995058 -4.440786 2.411724 -4.60505 0.3294528 -4.535235 2.471422 -4.612711 1.483762 -4.545942 1.184092 -2.229465 2.673346 4.313107 2 -112
-0.9239351 -0.9422716 -1.714308 -0.6353908 -1.323588 -1.994519 0.4598675 -1.868368 2.637503 -1.187076 2.719008 -1.185704 2.603513 0.1613566 -1.354455 1.002784 -0.753225 4.702481 -1.210628 2.579998 2.250396 4.611012 -4.515356 4.021232 -4.518488 4.093022 2.040012 -2.263049 3.732566 -4.425855 2.367929 -4.654078 0.1448441 -4.508708 2.160761 -4.614589 1.168914 -4.58966 0.8739773 -2.332495 2.82682 4.357762 2 -108
-0.8513756 -0.7622538 -1.498349 -0.5487209 -1.103528 -1.496133 0.72294 -1.937833 2.412971 -1.28306 2.50977 -1.285269 2.432862 0.5063111 -1.021278 1.198258 -0.5616355 4.914972 -1.337892 2.364552 2.481338 4.697401 -4.599637 4.011555 -4.625225 4.09461 2.278461 -2.03637 3.475214 -4.547379 2.153206 -4.726336 -0.1768972 -4.574246 1.841847 -4.689127 0.7233498 -4.680694 0.4607603 -2.467902 3.075744 4.45453 2 -104
-0.8847895 -0.6674497 -1.224439 -0.2924399 -0.7582856 -1.011814 1.000617 -1.761569 2.122188 -1.236346 2.236863 -1.237659 2.187542 0.8583853 -0.6526816 1.338755 -0.4324795 4.981843 -1.277728 2.103061 2.469502 4.664281 -4.617312 3.887984 -4.624903 3.928662 2.422344 -1.96077 3.197746 -4.613155 1.891286 -4.689875 -0.4868643 -4.58287 1.509066 -4.715303 0.2886765 -4.664722 0.09132875 -2.438153 3.281651 4.370102 2 -100
-0.9265127 -0.5832295 -1.018393 -0.2021772 -0.4775295 -0.6222707 1.167401 -1.26183 1.909389 -0.9853748 2.032223 -1.004269 1.995942 1.186019 -0.2643342 1.410613 -0.2498734 4.788692 -0.9714537 1.957165 2.292008 4.43758 -4.504281 3.613006 -4.498763 3.58079 2.404522 -2.024526 2.83412 -4.542027 1.543431 -4.553295 -0.7479337 -4.494251 1.084872 -4.635943 -0.09691958 -4.571785 -0.2101461 -2.400236 3.384274 4.22495 2 -96
-0.9536316 -0.4640861 -0.8954212 -0.2428349 -0.2093104 -0.3224356 1.212536 -0.8241354 1.810845 -0.7118513 1.910955 -0.7347044 1.898588 1.491414 0.1549302 1.464182 -0.06260923 4.466403 -0.6542206 1.913377 2.02178 4.084561 -4.256114 3.270446 -4.277242 3.179662 2.210528 -2.189258 2.379812 -4.346146 1.057712 -4.3021 -0.9897273 -4.300426 0.6165113 -4.423707 -0.4705712 -4.409317 -0.4881583 -2.445127 3.522033 4.306803 2 -92
-0.9605895 -0.2637271 -0.809664 -0.2228265 0.1330524 -0.04395708 1.188147 -0.6868575 1.730814 -0.5776379 1.786715 -0.5772061 1.809699 1.785326 0.5888708 1.507095 -0.02520023 4.192642 -0.5158761 1.827736 1.721597 3.779549 -3.885429 2.919497 -3.963696 2.815312 1.925189 -2.367869 1.900658 -3.992578 0.4626105 -3.917437 -1.268489 -3.980884 0.1783287 -4.073857 -0.9217457 -4.082952 -0.8723245 -2.422436 3.685604 4.494215 2 -88
-0.779748 0.02494145 -0.6565989 -0.1112154 0.5041823 0.1980833 1.198767 -0.6295441 1.687931 -0.4872309 1.698916 -0.4579184 1.743503 2.086715 0.9715779 1.554473 -0.1795526 3.924924 -0.4283933 1.733806 1.513159 3.56506 -3.528665 2.47212 -3.664987 2.390961 1.652219 -2.420794 1.451731 -3.595514 -0.1021864 -3.566524 -1.598262 -3.648872 -0.2535298 -3.700679 -1.460151 -3.699776 -1.404504 -2.37649 3.776785 4.600926 2 -84
-0.3586193 0.2719146 -0.3760009 0.1500207 0.7938607 0.3414383 1.294393 -0.4892784 1.796658 -0.3472024 1.764656 -0.2996487 1.804144 2.32478 1.193965 1.663836 -0.3375892 3.52076 -0.2812043 1.761583 1.376253 3.304418 -3.329213 1.874612 -3.489372 1.830635 1.347543 -2.310379 1.08335 -3.368449 -0.4756867 -3.407538 -1.849419 -3.474051 -0.5931805 -3.475889 -1.849063 -3.479616 -1.823594 -2.457368 3.776604 4.597109 2 -80
0.005902018 0.3437696 -0.09030366 0.5961488 0.9166357 0.3303767 1.369278 -0.3487117 1.907009 -0.1761153 1.841719 -0.1163822 1.871819 2.383376 1.215397 1.832998 -0.2946206 2.974243 -0.1005873 1.791399 1.192033 2.890316 -3.117035 1.257315 -3.257144 1.256053 0.9082479 -2.04562 0.767915 -3.148722 -0.6779795 -3.20102 -1.947918 -3.298336 -0.8110512 -3.260477 -2.030282 -3.26839 -2.020369 -2.552368 3.622595 4.489598 2 -76
0.09422271 0.263944 0.1048063 0.9291124 0.8887953 0.1852353 1.334798 -0.246561 1.737975 -0.03016076 1.679868 0.04427893 1.699097 2.286147 1.110913 1.922584 -0.1026261 2.353288 0.04885722 1.585955 1.008653 2.334486 -2.577165 0.7028719 -2.660159 0.7135599 0.4148744 -1.615785 0.3582236 -2.555489 -0.9261652 -2.59228 -1.983835 -2.763738 -1.090316 -2.69539 -2.231821 -2.698653 -2.186498 -2.410156 3.258218 4.305738 2 -72
0.1345059 0.2674507 0.3209732 0.9874507 0.8600671 0.1618367 1.269901 -0.181879 1.315406 -0.07310731 1.306579 0.02229518 1.29679 2.173485 1.035221 1.834069 0.05857611 1.698988 0.003447056 1.159055 0.9541865 1.701981 -1.757505 0.1454296 -1.781936 0.1465724 0.05878854 -1.068178 -0.1721095 -1.67633 -1.39016 -1.708217 -2.028265 -1.909498 -1.481226 -1.825018 -2.464159 -1.829942 -2.372124 -2.011775 2.76406 4.053696 2 -68
0.3400142 0.4853711 0.5879661 0.9985203 0.8905736 0.3706796 1.229954 -0.1898413 0.8230522 -0.2963156 0.8621657 -0.1677045 0.817339 2.10573 1.105034 1.623975 0.1625358 1.009518 -0.2211845 0.6736038 1.003729 1.02129 -0.9657848 -0.4447956 -0.9835625 -0.4271845 -0.1226567 -0.4455999 -0.6756455 -0.9090512 -1.922595 -0.9416512 -2.032305 -1.100921 -1.795173 -1.020411 -2.534352 -1.028129 -2.444757 -1.544783 2.229401 3.873299 2 -64
0.4821456 0.7056108 0.6933488 0.9260244 0.8312029 0.5370364 1.054533 -0.1857118 0.2971484 -0.4040289 0.3633365 -0.2380198 0.2888772 2.027813 1.258079 1.365252 0.355049 0.2025892 -0.3252633 0.1823234 1.040388 0.2474971 -0.2109797 -1.066117 -0.2413833 -1.032924 -0.2788471 0.244283 -1.088244 -0.2026332 -2.276935 -0.2391115 -1.925119 -0.3610973 -1.924641 -0.2701339 -2.410342 -0.2915146 -2.35381 -1.074721 1.700679 3.598174 2 -60
0.4575596 0.748699 0.5850198 0.6492051 0.6486331 0.5725532 0.6452783 0.009765852 -0.2461782 -0.2115933 -0.1574738 -0.05545811 -0.2503074 1.919803 1.39904 1.116437 0.7508619 -0.7341881 -0.1564012 -0.3035442 1.00446 -0.6129655 0.5555109 -1.726412 0.5517215 -1.702134 -0.5560355 0.8788935 -1.467305 0.5932707 -2.445599 0.5435894 -1.733197 0.4168538 -1.966464 0.5481118 -2.206049 0.481726 -2.168426 -0.6442724 1.234989 3.031769 2 -56
0.4789719 0.6658883 0.5257159 0.4323443 0.4947468 0.6784826 0.1768641 0.289268 -0.7077259 0.1185736 -0.6188995 0.198093 -0.6985438 1.764177 1.511109 0.8751457 1.217043 -1.648462 0.09142089 -0.7248393 0.8618154 -1.430332 1.178816 -2.346317 1.225766 -2.320607 -0.958622 1.260075 -1.845055 1.282696 -2.509717 1.228251 -1.498439 1.096558 -1.971841 1.261447 -1.954711 1.15362 -1.903175 -0.3037033 0.8072487 2.566836 2 -52
0.4984199 0.5329037 0.6725692 0.3651363 0.4511372 0.8995409 -0.142533 0.3299007 -1.031737 0.3060569 -0.9842365 0.297475 -1.038385 1.449228 1.555798 0.6000519 1.480787 -2.34061 0.2040945 -1.045893 0.5984194 -2.058531 1.647366 -2.705918 1.738714 -2.665316 -1.349169 1.383136 -2.111176 1.773729 -2.478636 1.752232 -1.190392 1.623253 -1.834753 1.782601 -1.580261 1.684163 -1.496729 0.06165326 0.2968395 2.069233 2 -48
0.5030833 0.5023973 0.9399529 0.2633074 0.536664 1.154424 -0.2443092 0.2140519 -1.283762 0.3826589 -1.276503 0.312728 -1.33096 0.9264978 1.479546 0.3506872 1.48947 -2.714851 0.2920545 -1.302651 0.2700837 -2.43944 2.021497 -2.63114 2.126074 -2.589215 -1.590308 1.406781 -2.135028 2.120856 -2.399611 2.142963 -0.8800278 2.036014 -1.597076 2.173634 -1.188712 2.09021 -1.105818 0.4256599 -0.4340344 0.9818752 2 -44
0.7181296 0.7493817 1.155191 0.160735 0.6893741 1.416786 -0.2514003 0.312374 -1.52287 0.5647017 -1.528248 0.464578 -1.59062 0.2410229 1.219436 0.1400021 1.408812 -2.88903 0.5304744 -1.530312 -0.1026443 -2.676017 2.272735 -2.26088 2.352453 -2.23448 -1.715058 1.41914 -1.971894 2.327432 -2.327081 2.34887 -0.6253808 2.299633 -1.425855 2.440965 -0.8826792 2.348311 -0.8418407 0.6540576 -1.376606 -0.4818147 2 -40
1.045092 1.072124 1.193105 0.2050938 0.7068328 1.630231 -0.3434635 0.6484087 -1.657583 0.7584829 -1.672658 0.6503913 -1.721513 -0.6014121 0.7337543 -0.1731166 1.300314 -3.019401 0.7402246 -1.664218 -0.5947264 -2.90624 2.438629 -1.91595 2.477938 -1.902217 -1.825095 1.419695 -1.737538 2.455684 -2.085918 2.45137 -0.214653 2.449899 -1.228404 2.597828 -0.4030206 2.528728 -0.407004 0.8862991 -2.364834 -1.95092 2 -36
1.160557 1.036422 1.079366 0.3007747 0.4701219 1.615802 -0.5338045 0.9707768 -1.657991 0.7695079 -1.692763 0.6522778 -1.714313 -1.517888 0.0789443 -0.7102425 1.056526 -3.120176 0.7140405 -1.678614 -1.186982 -3.104437 2.676777 -1.793014 2.681022 -1.792169 -1.869606 1.394982 -1.50613 2.66004 -1.415906 2.663779 0.4748529 2.689281 -0.8272421 2.80135 0.344957 2.774245 0.3123842 1.339573 -3.171558 -3.425884 2 -32
0.995698 0.5645338 0.8697239 0.1897324 0.07438659 1.212568 -0.8396102 1.138346 -1.627276 0.7045472 -1.694209 0.5739142 -1.668653 -2.289517 -0.6167123 -1.413143 0.6056675 -3.122283 0.605828 -1.637687 -1.6851 -3.141702 2.968955 -1.737716 2.955275 -1.758923 -1.697619 1.367932 -1.276188 2.908301 -0.3799644 2.946716 1.241202 3.02113 -0.2133936 3.06433 1.113329 3.048254 1.073149 1.915842 -3.585543 -4.774251 2 -28
0.7452377 -0.0356609 0.5850586 -0.08553066 -0.3568379 0.4565255 -1.306224 1.133787 -1.546982 0.6485279 -1.644457 0.5231191 -1.548483 -2.842054 -1.250829 -2.095314 -0.01136749 -2.964536 0.5305827 -1.497364 -2.014709 -2.979881 3.098891 -1.399114 3.083385 -1.414031 -1.284049 1.351494 -0.9427255 3.002142 0.6859577 3.049241 1.906416 3.199663 0.5545951 3.169971 1.79131 3.163114 1.757683 2.390381 -3.732469 -5.874304 2 -24
0.4489785 -0.5149727 0.2458309 -0.3134057 -0.7704706 -0.4652968 -1.691685 0.9894258 -1.347533 0.5087879 -1.441584 0.4251882 -1.302723 -3.312386 -1.817754 -2.616534 -0.6839361 -2.695682 0.3991131 -1.200012 -2.33321 -2.742973 3.016432 -0.8061569 3.026381 -0.7934995 -0.8196005 1.282072 -0.4728117 2.927286 1.664888 2.943514 2.552981 3.16545 1.390284 3.059742 2.522819 3.095063 2.495395 2.798176 -3.949202 -6.865958 2 -20
-0.05569069 -0.8759043 -0.1967266 -0.57513 -1.158634 -1.339528 -1.803186 0.7158371 -1.122454 0.3328431 -1.191751 0.3056759 -1.077778 -3.762253 -2.347409 -2.965589 -1.264979 -2.466864 0.2714386 -0.918196 -2.698279 -2.542417 2.846061 -0.3144926 2.906535 -0.2989856 -0.4824852 1.170447 0.04037884 2.800973 2.75738 2.797337 3.315785 3.043918 2.217761 2.870244 3.451407 2.966046 3.41517 3.229111 -4.316109 -7.678902 2 -16
-0.6908613 -1.229803 -0.7913089 -1.029567 -1.580069 -2.067359 -1.90937 0.298483 -1.039743 0.2106397 -1.100545 0.2104333 -1.046014 -4.108045 -2.833745 -3.24834 -1.699067 -2.329458 0.2107309 -0.886466 -2.956088 -2.295979 2.739937 -0.004472798 2.835607 0.008974206 -0.1790034 1.150636 0.5484436 2.738071 3.903582 2.769397 4.080741 2.989161 3.014217 2.784043 4.42178 2.921734 4.360126 3.623022 -4.664353 -8.130518 2 -12
-1.167244 -1.610268 -1.456545 -1.683123 -2.060251 -2.674195 -2.26662 -0.0875062 -1.113704 0.1277982 -1.179324 0.1206837 -1.158866 -4.281185 -3.248242 -3.549418 -2.076451 -2.162278 0.1539071 -1.060355 -2.973002 -1.851735 2.69835 0.3174335 2.797502 0.3454773 0.3197815 1.269188 1.111064 2.72921 4.725587 2.795944 4.606415 2.99489 3.814599 2.799807 5.156669 2.934415 5.080726 3.867027 -4.850052 -8.25463 2 -8
-1.330832 -1.990251 -2.043226 -2.395357 -2.518877 -3.214744 -2.81026 -0.1570004 -1.232878 0.1038392 -1.301345 0.0878387 -1.266182 -4.295179 -3.579908 -3.82846 -2.465292 -1.90607 0.1360985 -1.238914 -2.783325 -1.248372 2.589533 0.6917782 2.684775 0.7350248 1.064115 1.450024 1.728405 2.630402 5.121707 2.685843 4.821836 2.889244 4.633906 2.742733 5.593886 2.835166 5.513312 3.890788 -4.89622 -8.127145 2 -4
-1.316139 -2.397505 -2.488522 -2.872046 -2.880522 -3.77003 -3.393135 0.05400538 -1.332268 0.1260033 -1.411405 0.1176655 -1.337271 -4.227314 -3.831464 -3.995438 -2.809633 -1.663123 0.1608179 -1.354717 -2.539324 -0.6924109 2.442094 1.032377 2.540527 1.077769 1.847443 1.611288 2.326313 2.45555 5.372087 2.509479 4.902485 2.697077 5.365559 2.616444 5.886283 2.665705 5.782252 3.82255 -4.914861 -8.184852 2 0
-1.406143 -2.834708 -2.839005 -3.019801 -3.135685 -4.353334 -3.92646 0.1656982 -1.440237 0.1234758 -1.543069 0.127281 -1.438581 -4.163229 -3.990733 -4.043603 -3.026915 -1.536266 0.1462693 -1.474102 -2.347628 -0.3169504 2.435072 1.318159 2.511025 1.354628 2.423576 1.692889 2.872912 2.428639 5.742971 2.499538 5.084373 2.645001 5.888872 2.606897 6.204351 2.63231 6.053906 3.866115 -5.0395 -8.948524 2 4
-1.604144 -3.141928 -3.135599 -3.112559 -3.249413 -4.794605 -4.34032 -0.004431529 -1.597402 0.1146923 -1.709445 0.1256303 -1.595367 -4.078904 -4.018268 -4.066513 -3.06929 -1.51246 0.1304947 -1.655476 -2.177046 -0.06145443 2.540419 1.536462 2.565521 1.57934 2.788243 1.699007 3.300546 2.542415 6.142557 2.614581 5.305265 2.744072 6.202247 2.723402 6.480402 2.710166 6.272927 3.941557 -5.243649 -9.891617 2 8
-1.732171 -3.11669 -3.351006 -3.30007 -3.147384 -4.897274 -4.529867 -0.4156255 -1.636867 0.07064429 -1.722024 0.09746539 -1.636574 -3.883197 -3.872926 -4.103473 -2.961277 -1.48126 0.0999716 -1.728604 -1.971457 0.2110037 2.484433 1.732697 2.481062 1.808851 3.105358 1.724566 3.542618 2.476275 6.223462 2.568858 5.294986 2.735366 6.387086 2.707372 6.514598 2.653576 6.269814 3.908803 -5.271636 -10.3395 2 12
-1.910443 -2.851656 -3.415817 -3.467095 -2.872132 -4.659604 -4.482987 -1.100523 -1.408817 -0.1545282 -1.444847 -0.105077 -1.43589 -3.59818 -3.582407 -4.095228 -2.778827 -1.414387 -0.1175383 -1.522028 -1.771653 0.4642274 2.268915 1.941607 2.267741 2.035225 3.374291 1.847497 3.63904 2.239567 5.862787 2.378004 5.040827 2.595973 6.462434 2.504247 6.312655 2.477373 6.06118 3.918898 -5.088608 -10.41452 2 16
-2.264087 -2.661746 -3.254781 -3.592448 -2.596919 -4.191542 -4.337765 -1.79383 -1.196668 -0.5372434 -1.172841 -0.4863525 -1.240461 -3.319965 -3.227299 -4.007265 -2.492164 -1.465624 -0.5243793 -1.276983 -1.645832 0.4916349 2.221391 1.978132 2.238988 2.037149 3.446458 2.065637 3.609011 2.197633 5.313521 2.381563 4.769134 2.611043 6.336029 2.425368 6.056482 2.458699 5.797616 4.086814 -4.938812 -10.29742 2 20
-2.452233 -2.563537 -2.79186 -3.653127 -2.419462 -3.566803 -4.177493 -2.021287 -1.272298 -0.8648832 -1.188202 -0.8398791 -1.276799 -3.126514 -2.888577 -3.88755 -2.04168 -1.725814 -0.884745 -1.239818 -1.630533 0.2084346 2.433236 1.706015 2.484827 1.710902 3.248249 2.323937 3.398138 2.427033 4.825864 2.622896 4.572065 2.844616 5.964238 2.607241 5.80269 2.6657 5.538805 4.268463 -4.851503 -10.28917 2 24
-2.171613 -2.285378 -2.106275 -3.492061 -2.234873 -2.82054 -3.89169 -1.776052 -1.455376 -1.029978 -1.342732 -1.038679 -1.403172 -3.034672 -2.589038 -3.823005 -1.531459 -2.093693 -1.056276 -1.297338 -1.724832 -0.2204622 2.623818 1.330207 2.700522 1.322782 2.834603 2.543281 3.064881 2.633019 4.436838 2.761369 4.358617 3.017046 5.484565 2.772874 5.464854 2.84739 5.238019 4.263288 -4.653425 -10.6251 2 28
-1.789921 -1.782889 -1.548497 -3.110458 -1.92141 -2.090313 -3.355277 -1.510162 -1.483657 -1.127304 -1.387479 -1.15289 -1.432544 -3.003397 -2.301904 -3.86796 -1.186677 -2.498364 -1.127964 -1.292572 -1.882446 -0.607733 2.635767 1.089731 2.707034 1.112287 2.311254 2.667937 2.815049 2.677086 4.155734 2.711281 4.133414 3.021288 5.145739 2.758286 5.109458 2.870131 4.952291 4.12537 -4.357491 -11.17961 2 32
-1.778616 -1.315823 -1.320745 -2.771422 -1.583539 -1.669076 -2.762201 -1.563666 -1.392665 -1.240424 -1.343731 -1.239363 -1.423114 -3.062582 -2.09886 -4.013965 -1.185262 -2.978297 -1.182033 -1.269689 -2.12485 -1.010829 2.731326 0.9638401 2.782906 1.003514 1.683178 2.663562 2.747009 2.815624 4.075112 2.817754 4.070202 3.152081 5.048165 2.844102 4.958402 2.985583 4.829206 4.150875 -4.159218 -11.83338 2 36
-2.001197 -1.094793 -1.221377 -2.682732 -1.392554 -1.627933 -2.491147 -1.830569 -1.425871 -1.28342 -1.430051 -1.239141 -1.549083 -3.247133 -2.07866 -4.183821 -1.446801 -3.586415 -1.174984 -1.391235 -2.533339 -1.609442 3.119263 0.8408208 3.152585 0.8644581 0.8834714 2.501685 2.776537 3.215663 4.318868 3.24406 4.330381 3.568946 5.056075 3.246615 5.184504 3.368908 4.995146 4.398744 -4.169738 -12.37501 2 40
-2.078639 -1.046636 -1.085837 -2.683548 -1.306198 -1.690453 -2.571341 -1.9443 -1.615358 -1.090136 -1.644479 -1.045626 -1.771001 -3.486496 -2.185699 -4.23228 -1.645775 -4.273158 -0.9816216 -1.614405 -3.072827 -2.393902 3.537897 0.6541061 3.536094 0.6450936 -0.08551255 2.154697 2.791355 3.610905 4.909527 3.661377 4.888664 3.951914 5.036791 3.691245 5.777935 3.728611 5.481045 4.57091 -4.372552 -12.70998 2 44
-2.046263 -0.9805185 -0.9948637 -2.555005 -1.202746 -1.669973 -2.680877 -1.783712 -1.728614 -0.6828316 -1.746829 -0.6676935 -1.857943 -3.73039 -2.321383 -4.118452 -1.654114 -4.847619 -0.5721589 -1.69731 -3.616625 -3.150638 3.685758 0.3789638 3.61365 0.3372837 -1.12253 1.649463 2.733327 3.724352 5.685795 3.765572 5.553145 4.030655 5.049228 3.833959 6.532551 3.778019 6.122826 4.599281 -4.696896 -12.94763 2 48
-2.160801 -0.9096288 -0.9583676 -2.321393 -1.102778 -1.645503 -2.590861 -1.692227 -1.655438 -0.4017207 -1.659044 -0.4058832 -1.732835 -3.952522 -2.462535 -3.979081 -1.711288 -5.12492 -0.2885563 -1.58826 -4.050275 -3.674206 3.634821 0.1549082 3.472667 0.1039423 -2.078494 1.102119 2.641707 3.639475 6.392112 3.666281 6.159124 3.932915 5.210121 3.71317 7.243558 3.6548 6.716719 4.726103 -4.921297 -13.09634 2 52
-2.259578 -0.8742008 -0.9018158 -1.962318 -1.087148 -1.681159 -2.333728 -1.77153 -1.482678 -0.3978589 -1.50933 -0.4141286 -1.524524 -4.069729 -2.609141 -3.890392 -1.933802 -5.126492 -0.351109 -1.431874 -4.295106 -3.998436 3.558397 0.1028785 3.332714 0.08177784 -2.907244 0.5769886 2.519197 3.558642 6.797375 3.565035 6.565186 3.792277 5.368321 3.548483 7.739449 3.56148 7.121408 4.817747 -4.767202 -13.02629 2 56
-2.098731 -0.6797341 -0.9315786 -1.507315 -1.193341 -1.775869 -2.046384 -1.587325 -1.293378 -0.3531284 -1.376535 -0.3531017 -1.338306 -4.062265 -2.794966 -3.819315 -2.091712 -5.102283 -0.36907 -1.294459 -4.380516 -4.378308 3.505002 0.06324304 3.270769 0.08425411 -3.71239 0.0683852 2.237402 3.534577 6.862372 3.507071 6.691505 3.610994 5.243711 3.449498 7.903609 3.521652 7.270866 4.62502 -4.342739 -12.56624 2 60
-1.853247 -0.2724578 -1.147302 -1.185115 -1.401904 -2.002925 -1.77604 -1.02221 -1.063325 -0.04957546 -1.181688 0.01811411 -1.129402 -4.046122 -3.082202 -3.722093 -2.00363 -5.160793 -0.01776262 -1.10629 -4.45319 -4.898477 3.422736 -0.03923352 3.234486 -0.005721423 -4.568425 -0.3873227 1.813473 3.473509 6.794221 3.434173 6.694542 3.402414 4.910859 3.363963 7.917511 3.461629 7.329402 4.2938 -4.120355 -11.86809 2 64
-1.743659 0.06781323 -1.41604 -0.975898 -1.631063 -2.389782 -1.470453 -0.4986807 -0.789777 0.3009994 -0.9072934 0.4411266 -0.8708071 -4.133425 -3.475024 -3.554585 -1.798338 -5.116362 0.4276581 -0.8644794 -4.611331 -5.350939 3.303359 -0.06044184 3.192963 -0.03586693 -5.380657 -0.7245279 1.442334 3.361005 6.733537 3.358337 6.789021 3.248946 4.702023 3.265408 8.085586 3.372471 7.530554 4.064396 -4.273614 -11.61471 2 68
-1.679117 0.219394 -1.567446 -0.6358543 -1.759309 -2.789138 -1.064392 -0.2829159 -0.5685688 0.3897195 -0.6793243 0.5726352 -0.6575281 -4.257603 -3.850413 -3.288729 -1.715852 -4.847054 0.5555295 -0.6775482 -4.736135 -5.539135 3.204773 -0.0572846 3.144464 -0.03568387 -5.932497 -0.9200732 1.19759 3.277763 6.578921 3.324082 6.92627 3.206083 4.72982 3.210207 8.357497 3.323174 7.806198 4.029477 -4.461686 -12.05097 2 72
-1.441871 0.3549753 -1.543079 -0.2970064 -1.692099 -2.94111 -0.5479617 -0.1668017 -0.4718669 0.2492027 -0.5722021 0.4333668 -0.5640223 -4.200311 -4.023617 -2.895457 -1.778147 -4.406708 0.378952 -0.5921544 -4.621131 -5.434748 3.045255 -0.2124183 3.019878 -0.1900253 -6.072209 -0.9902996 1.015493 3.14828 6.228693 3.193057 6.853609 3.122362 4.823852 3.116571 8.43125 3.230891 7.880811 4.044882 -4.294191 -12.62146 2 76
-1.207041 0.5013736 -1.452322 -0.3449771 -1.492741 -2.815566 0.05625859 0.0361275 -0.5828149 0.1753365 -0.6466624 0.2911741 -0.6546179 -3.883125 -3.971099 -2.398275 -1.771865 -3.877095 0.2286751 -0.670765 -4.25065 -5.125064 2.869948 -0.5294783 2.917835 -0.5190406 -5.892129 -0.9149961 0.8665782 3.010984 5.700166 3.017977 6.476203 3.002642 4.793099 3.005889 8.15827 3.116023 7.621664 3.989087 -3.756641 -13.0784 2 80
-1.389677 0.5247667 -1.460054 -0.701145 -1.32027 -2.673826 0.7215502 0.06059983 -0.9150319 0.1564459 -0.9186628 0.1795547 -0.946735 -3.512223 -3.861679 -1.891584 -1.583872 -3.348067 0.1633647 -0.9738711 -3.776177 -4.710755 2.871329 -0.8450618 2.988467 -0.8673779 -5.612261 -0.7421972 0.8576171 3.052424 5.154964 3.054029 6.056448 3.062298 4.679553 3.043104 7.77773 3.150044 7.283343 3.999069 -3.297172 -13.48901 2 84
-1.878566 0.4736834 -1.522028 -0.8920968 -1.178943 -2.600309 1.334632 -0.3836696 -1.174356 -0.1304307 -1.140481 -0.1504149 -1.192723 -3.256713 -3.818147 -1.447046 -1.35312 -2.887884 -0.1252844 -1.248812 -3.31591 -4.212949 2.829789 -0.9354523 2.973957 -0.9828304 -5.300372 -0.649055 1.111776 3.037787 4.83432 3.070331 5.889205 3.091318 4.744445 2.989604 7.737013 3.116206 7.287274 4.087907 -3.196291 -13.63531 2 88
-2.288725 0.4537333 -1.559231 -0.8110504 -1.009176 -2.526662 1.714165 -1.118497 -1.123972 -0.7146623 -1.097795 -0.72978 -1.156524 -3.019824 -3.797504 -1.139495 -1.281762 -2.497392 -0.7111 -1.213842 -2.910362 -3.630017 2.454648 -0.7515852 2.580527 -0.790255 -4.870568 -0.7039728 1.546009 2.642604 4.76116 2.69608 5.920676 2.747087 5.106208 2.53287 8.067153 2.720279 7.619433 4.115656 -3.079029 -13.14543 2 92
-2.579289 0.3899738 -1.684565 -0.7433874 -0.9325825 -2.527564 1.707709 -1.761938 -0.9862349 -1.299759 -0.9720851 -1.309845 -1.016179 -2.752635 -3.783471 -1.054098 -1.472655 -2.191165 -1.298536 -1.034282 -2.595886 -3.06629 1.967543 -0.4757865 2.033233 -0.4873042 -4.281327 -0.7938967 1.977888 2.10912 4.831612 2.155811 6.01639 2.259852 5.6559 1.937636 8.507374 2.206053 8.019952 4.19715 -2.700641 -12.17189 2 96
-2.697148 0.2398078 -1.927027 -0.7213342 -1.060748 -2.637399 1.356948 -2.076989 -1.002817 -1.692989 -0.9837955 -1.739027 -1.028738 -2.617432 -3.870022 -1.151998 -1.821269 -2.01909 -1.693858 -0.983745 -2.403441 -2.6613 1.623157 -0.2485627 1.65946 -0.2248764 -3.63752 -0.7967765 2.333575 1.758554 4.993081 1.78073 6.153475 1.977933 6.216261 1.55472 8.957273 1.88779 8.406063 4.425608 -2.378847 -11.2469 2 100
-2.542413 0.06606245 -2.176771 -0.6271597 -1.324087 -2.768447 0.9081678 -1.963647 -1.156401 -1.913398 -1.142662 -2.013649 -1.20422 -2.691541 -4.080204 -1.310398 -2.120216 -1.969336 -1.938688 -1.129248 -2.289055 -2.38592 1.393238 -0.02844236 1.468456 0.02366549 -3.05636 -0.691821 2.675457 1.552086 5.163766 1.56878 6.26925 1.871655 6.632701 1.369384 9.325944 1.727822 8.73582 4.603865 -2.394269 -10.43831 2 104
-2.434993 -0.1645031 -2.457797 -0.6433979 -1.661356 -2.991804 0.5816601 -1.735858 -1.351117 -2.15432 -1.367829 -2.261313 -1.422535 -2.843785 -4.387056 -1.495529 -2.3523 -1.938996 -2.210367 -1.389152 -2.133279 -2.007771 1.265733 0.2435498 1.372403 0.2981879 -2.457325 -0.5121197 3.159059 1.419545 5.40887 1.477766 6.408852 1.827906 7.013538 1.293456 9.640719 1.636683 9.068153 4.673226 -2.635149 -9.778955 2 108
-2.596192 -0.5183015 -2.727125 -0.8452522 -2.014705 -3.402271 0.5176842 -1.956573 -1.417154 -2.591709 -1.473062 -2.657947 -1.5108 -2.904293 -4.762983 -1.709743 -2.611339 -1.786314 -2.639815 -1.532901 -1.809579 -1.310855 1.122178 0.5362453 1.207558 0.5912539 -1.664949 -0.2931812 3.849632 1.23849 5.901403 1.328424 6.647468 1.682016 7.606198 1.155545 10.04974 1.45777 9.483611 4.660208 -2.800168 -9.498416 2 112
-2.769809 -0.9392917 -2.76293 -0.9264513 -2.294643 -3.770538 0.6617687 -2.596597 -1.271416 -3.097366 -1.356218 -3.12524 -1.391179 -2.855988 -5.13085 -1.936095 -2.915316 -1.526076 -3.08272 -1.430681 -1.325243 -0.4182746 0.7864264 0.8084885 0.8370191 0.8839586 -0.7038045 -0.102416 4.57229 0.8623663 6.565538 0.9316259 6.880017 1.294229 8.344527 0.79779 10.4733 1.060547 9.854762 4.518708 -2.810992 -9.593054 2 116
-2.877378 -1.271268 -2.6374 -0.7543598 -2.553768 -3.922338 0.738537 -3.212574 -1.003053 -3.464542 -1.113224 -3.454467 -1.135872 -2.825716 -5.454869 -2.184893 -3.245358 -1.406578 -3.360779 -1.160756 -0.8527842 0.2576457 0.4219106 1.044417 0.4494765 1.142506 0.1602205 0.02090844 5.08609 0.4856187 7.0974 0.5294431 7.018201 0.8882563 8.927864 0.4194107 10.73645 0.6705244 10.0586 4.402612 -2.777359 -9.887265 2 120
-3.082549 -1.434517 -2.66915 -0.5449453 -2.894092 -4.012037 0.5987917 -3.553255 -0.7107529 -3.612754 -0.8353304 -3.558807 -0.8489958 -2.826858 -5.716191 -2.403175 -3.478532 -1.582992 -3.437508 -0.8320758 -0.506547 0.5135106 0.2040177 1.293777 0.2180228 1.371642 0.6975892 0.1081108 5.334395 0.298005 7.246569 0.3457301 7.060273 0.6796463 9.218367 0.203524 10.82559 0.4715939 10.12689 4.45713 -2.678718 -10.05257 2 124
-3.304947 -1.489432 -2.923544 -0.5770304 -3.292709 -4.113636 0.2687799 -3.532882 -0.5708687 -3.452398 -0.6605503 -3.389251 -0.7013546 -2.687132 -5.848871 -2.540746 -3.488053 -1.952271 -3.259771 -0.6507511 -0.2159921 0.5141706 0.0672714 1.514773 0.07907906 1.498022 0.9622626 0.2088659 5.413446 0.1910796 6.997415 0.244972 6.983241 0.5789715 9.292577 0.06924122 10.79328 0.3774805 10.1016 4.61341 -2.325205 -9.792272 2 128
-3.396539 -1.479248 -3.218738 -1.007753 -3.640649 -4.131919 -0.1234875 -3.276277 -0.65505 -3.08864 -0.6783143 -3.040304 -0.7354622 -2.296586 -5.80364 -2.662649 -3.382257 -2.368778 -2.917858 -0.7250699 0.1560338 0.5022992 0.03028961 1.489675 0.04094323 1.375819 1.178754 0.3848802 5.428623 0.1427398 6.537767 0.1706396 6.740124 0.5350733 9.220641 0.0172198 10.56455 0.3430817 9.897993 4.655393 -1.65978 -9.122883 2 132
-3.409766 -1.365278 -3.402948 -1.545223 -3.797842 -4.042256 -0.3025976 -3.113313 -0.7323372 -2.858712 -0.7031057 -2.801536 -0.7376093 -1.76811 -5.580247 -2.749214 -3.32793 -2.768553 -2.685911 -0.8161955 0.6271781 0.5611006 0.1314027 1.197796 0.1318579 1.100207 1.416935 0.6355324 5.441589 0.213166 6.009677 0.2262039 6.337633 0.5838182 9.013554 0.1065197 10.09328 0.3663196 9.458644 4.42113 -1.091655 -8.473469 2 136
-3.296327 -1.04744 -3.411632 -1.647517 -3.671346 -3.836878 -0.1408824 -3.218492 -0.735966 -2.872537 -0.6685209 -2.788316 -0.7154618 -1.297632 -5.233147 -2.639961 -3.27198 -3.120625 -2.655971 -0.839081 1.027172 0.5918074 0.2775234 0.8051245 0.2607337 0.8160587 1.510828 0.844514 5.414633 0.3292382 5.411965 0.3799986 5.860225 0.6752519 8.686471 0.2743914 9.525001 0.4466196 8.909078 4.09288 -1.062053 -7.967787 2 140
