Fp1 Fp2 AF3 AF4 Fz F3 F4 F7 F8 FC5 FC6 FT7 FT8 Cz FC1 FC2 C3 C4 T7 T8 A1 A2 CP1 CP2 CP5 CP6 TP7 TP8 Pz P3 P4 P7 P8 PO9 PO10 PO3 PO4 PO7 PO8 O1 O2 Oz ID time
4.056348 -0.3253344 0.5205756 -0.5200775 -2.079115 -1.341933 -1.686749 2.314812 2.804636 0.6054115 0.2973488 2.57067 0.3693914 -2.050373 -2.246444 -2.81576 0.1363745 -3.095635 1.056889 0.6527615 0.4050177 -1.26382 1.042801 -0.988956 0.1961056 2.317661 0.7423002 0.4999312 -0.9503031 0.05723875 0.887447 -0.8557459 0.8382624 -1.483418 0.656959 -0.991854 0.5677921 -1.450798 0.3540824 -1.898039 -1.354227 3.447758 1 -168
2.887177 -0.2955158 0.2359996 -0.4853445 -2.292878 -1.43638 -1.755619 2.447461 2.576122 0.4253879 0.09722507 3.242568 0.189992 -2.201607 -2.404565 -3.112725 0.2416742 -3.180577 1.755717 0.4725691 0.6120186 -1.342115 1.215771 -1.09374 0.9159874 2.293845 0.9057903 0.77021 -0.9016358 0.3968855 1.148723 -0.5509355 1.07048 -1.282769 0.9188858 -0.9429532 0.7878364 -1.243091 0.5750336 -1.862848 -1.91263 2.11455 1 -164
1.260144 -0.4161282 -0.04703156 -0.588019 -2.55247 -1.559809 -1.800044 2.281597 2.29486 0.398943 0.03885717 3.369202 0.1318379 -2.373518 -2.637282 -3.356943 0.3265611 -3.218784 2.376497 0.4575155 0.8077716 -1.234519 1.521016 -1.073389 1.797318 2.15959 1.121187 1.093075 -0.7159874 0.8018662 1.375884 -0.09146566 1.362619 -0.8675024 1.198581 -0.7328239 1.048925 -0.9337922 0.8506868 -1.514442 -2.25237 -0.1082295 1 -160
0.1878941 -0.7144474 -0.1233112 -0.8883598 -2.79904 -1.595724 -1.813322 1.935835 1.934765 0.3102216 0.1238227 2.870976 0.1767219 -2.565633 -2.855236 -3.562169 0.3142453 -3.22441 2.615933 0.3075659 0.8741366 -1.03012 1.857273 -1.044713 2.508407 2.046532 1.270594 1.36893 -0.4699788 1.151634 1.496837 0.3675589 1.619571 -0.3444193 1.448439 -0.3972994 1.290788 -0.568661 1.150836 -0.8525543 -2.529203 -1.850882 1 -156
-0.1091029 -0.9680803 -0.1544431 -1.165364 -3.039871 -1.65444 -1.785741 1.684086 1.634831 0.05424972 0.269342 2.232204 0.2784949 -2.786639 -3.039829 -3.826792 0.2326952 -3.195084 2.439557 0.01050845 0.8106808 -0.9601902 2.081316 -1.104626 2.767362 2.082934 1.29909 1.48175 -0.3431385 1.391046 1.51138 0.6601039 1.774699 -0.02136998 1.615029 -0.08648166 1.466478 -0.1568355 1.393376 -0.2501731 -2.853109 -1.669997 1 -152
0.02229682 -0.9208345 -0.3941094 -1.130683 -3.250534 -1.691391 -1.658374 1.738646 1.533475 -0.1700799 0.357852 2.09657 0.3429723 -3.031784 -3.156362 -4.095561 0.1588701 -3.143581 2.169846 -0.3049383 0.7027464 -1.118513 2.128893 -1.292267 2.624596 2.129886 1.19412 1.37377 -0.4438348 1.522074 1.383547 0.724391 1.782267 -0.03628388 1.633021 0.07316327 1.506902 0.18245 1.458061 -0.04676099 -3.271668 0.317131 1 -148
0.7245068 -0.6129628 -0.8464077 -0.7950847 -3.332102 -1.28785 -1.436718 1.98838 1.461132 -0.1026498 0.2594471 2.432674 0.2223852 -3.220156 -3.115643 -4.210492 0.1021077 -3.071644 2.045612 -0.6838679 0.5719333 -1.370117 2.109284 -1.556569 2.401426 1.938392 0.9652315 1.123379 -0.670322 1.52116 1.050528 0.5745139 1.600985 -0.214313 1.450774 0.04910432 1.370887 0.2846559 1.299064 -0.1985832 -3.774542 2.952463 1 -144
2.111454 -0.3179594 -1.161373 -0.4542288 -3.211404 -0.490118 -1.23636 2.243845 1.191703 0.2230543 -0.01316719 2.475611 -0.07299861 -3.21933 -2.8743 -4.05974 0.03462408 -2.894969 1.955252 -1.082737 0.4152477 -1.450039 2.111043 -1.733715 2.34457 1.5027 0.729221 0.9126803 -0.7895857 1.431961 0.5840749 0.3667212 1.279736 -0.2772067 1.147499 -0.03510445 1.107606 0.1816236 1.014791 -0.357484 -4.229773 4.596561 1 -140
3.273124 -0.2704189 -1.14082 -0.3778405 -3.034446 -0.07747039 -1.182039 2.301177 0.8916935 0.4852149 -0.2044495 1.782638 -0.2373044 -3.056135 -2.608892 -3.732491 -0.07902015 -2.568483 1.631672 -1.090489 0.2630211 -1.269319 1.99937 -1.66253 2.341025 1.057867 0.6246341 0.8363363 -0.7008242 1.31735 0.2334218 0.2538838 1.003111 -0.1467908 0.9147345 -0.03154826 0.8685396 0.1010825 0.8009403 -0.240374 -4.311831 5.042685 1 -136
3.153765 -0.5100048 -1.09423 -0.5998507 -3.048284 -0.4797456 -1.301896 1.878824 0.8804671 0.4440683 -0.121863 0.7754812 -0.07965283 -2.905069 -2.536792 -3.517745 -0.2168832 -2.190816 0.9862404 -0.4155629 0.1841595 -1.012398 1.630293 -1.314436 2.077933 0.7828356 0.6988534 0.843298 -0.4712401 1.152483 0.1752957 0.1985069 0.9428838 0.0418419 0.8615244 0.05650187 0.8034446 0.2280049 0.7838545 0.07866625 -3.731616 5.888885 1 -132
2.167569 -0.7986536 -1.049384 -0.8784351 -3.157098 -1.150001 -1.500148 1.339564 1.015652 0.3339047 0.06845476 0.2491108 0.1683377 -2.791995 -2.556916 -3.498211 -0.2095679 -1.872108 0.5075125 0.4171593 0.2573643 -0.8074637 1.183757 -0.8444595 1.611263 0.6319839 0.9158939 0.8952119 -0.1849097 0.9907361 0.3466484 0.2544283 1.036394 0.2057802 0.9437324 0.1818461 0.8699934 0.5597867 0.8930033 0.3172551 -3.044695 5.981581 1 -128
1.296434 -0.9618843 -0.7749698 -1.046466 -3.142895 -1.498304 -1.743916 1.189272 0.936164 0.3710063 0.03847051 0.3756222 0.1726939 -2.617166 -2.505657 -3.468174 -0.07219098 -1.612359 0.5510065 0.6169636 0.453234 -0.5682084 0.9038236 -0.4319561 1.228219 0.5342512 1.220897 1.004466 0.159828 0.9110487 0.625083 0.5300291 1.184416 0.4125562 1.134137 0.3938749 1.016494 0.9707922 1.079442 0.4777873 -2.89599 3.552105 1 -124
0.8079484 -1.116157 -0.5085081 -1.201401 -3.059846 -1.571302 -2.053368 1.175958 0.6252422 0.4366689 -0.2603764 0.6297318 -0.1046046 -2.382777 -2.429949 -3.310629 -0.06629574 -1.349349 0.7734552 0.1628316 0.6264696 -0.2217147 0.7680983 -0.1026359 0.9907081 0.49779 1.520069 1.141833 0.5713705 0.8966332 0.8977805 0.9100992 1.397443 0.6945491 1.413158 0.7350334 1.275999 1.30868 1.361123 0.7602899 -3.008658 0.3685446 1 -120
0.7865325 -1.257431 -0.5975094 -1.316707 -2.995705 -1.544112 -2.287346 0.9305087 0.2939937 0.3928922 -0.5901495 0.575586 -0.4406907 -2.163426 -2.400383 -3.095446 -0.2578589 -1.081704 0.7093372 -0.42787 0.6827126 0.1505186 0.6387942 0.1716604 0.7380025 0.5338694 1.681446 1.210301 0.9143812 0.8863994 1.041547 1.133588 1.572658 0.9289792 1.622773 1.085847 1.512417 1.442651 1.569325 1.086179 -2.920967 -0.9156793 1 -116
1.210191 -1.171168 -0.9336174 -1.195943 -2.890773 -1.36003 -2.264199 0.4983909 0.09425459 0.1161372 -0.719807 0.1844621 -0.5996428 -2.015781 -2.397137 -2.904017 -0.4939347 -0.8422222 0.2409575 -0.6469252 0.6374922 0.3922352 0.4053518 0.3827918 0.325884 0.7015987 1.643278 1.126345 1.017764 0.815633 1.08869 1.07323 1.547515 0.9545462 1.602513 1.279717 1.527815 1.368179 1.502329 1.167528 -2.562803 0.09322045 1 -112
1.402529 -0.8723893 -1.115479 -0.8902374 -2.710359 -1.017973 -1.995808 0.09824512 0.05551738 -0.3136471 -0.4796295 -0.310217 -0.3983393 -1.927159 -2.332295 -2.697152 -0.640954 -0.6068383 -0.2808445 -0.2504261 0.5261003 0.4481988 0.08140141 0.5249915 -0.02527122 0.9585932 1.459394 0.9239249 0.8948692 0.7362545 1.139076 0.9179871 1.322241 0.7694265 1.376356 1.331588 1.328066 1.210866 1.209721 0.8931532 -2.062997 1.319439 1 -108
0.8669849 -0.6677831 -0.9826655 -0.7053372 -2.532763 -0.7162537 -1.650322 -0.2619109 0.1811301 -0.6879936 0.0949285 -0.6591408 0.1520151 -1.76823 -2.139723 -2.366203 -0.7203011 -0.3495431 -0.4881735 0.4874549 0.3620906 0.4523963 -0.2158457 0.6120459 -0.0508641 1.164075 1.233962 0.7030733 0.7323331 0.7201279 1.153422 0.8721872 1.039697 0.5536924 1.083839 1.341061 1.06017 1.033174 0.8873648 0.4847433 -1.336222 1.027391 1 -104
0.271813 -0.7414761 -0.7355463 -0.7981752 -2.389142 -0.4885521 -1.373144 -0.7040108 0.3843957 -1.033104 0.5874881 -0.8527618 0.6414106 -1.421346 -1.861152 -1.877615 -0.8664154 -0.1028254 -0.5406942 0.9194565 0.1979738 0.5688571 -0.4888661 0.6398993 0.02888224 1.236948 1.082437 0.5174145 0.6887437 0.6500617 1.088294 0.8470934 0.8598927 0.466397 0.858793 1.304525 0.8734608 0.8092394 0.6876922 0.268075 -0.2646102 0.06020451 1 -100
0.1495898 -0.8918771 -0.6332802 -0.9527562 -2.236241 -0.3210144 -1.22287 -1.091136 0.4057688 -1.361676 0.6619443 -1.188926 0.7051632 -0.9188513 -1.563147 -1.311802 -1.053589 0.1061584 -0.8139904 0.6191524 0.1270077 0.8287079 -0.8233895 0.5818917 -0.05038067 1.149945 1.117293 0.3582883 0.7756324 0.4304394 1.000266 0.691155 0.8324576 0.4862779 0.7919024 1.193864 0.8413283 0.573033 0.6455912 0.311889 0.7270042 0.3231103 1 -96
0.1479759 -0.8163487 -0.8216885 -0.8611591 -2.073261 -0.431056 -1.147337 -1.24523 0.2270767 -1.560315 0.4886564 -1.735887 0.5103755 -0.4083364 -1.280139 -0.859663 -1.12101 0.2721593 -1.274935 0.1093242 0.1477069 1.097243 -1.188484 0.4944462 -0.1756798 0.985985 1.263409 0.1914243 0.8960869 0.1786964 0.9095783 0.4330558 0.8306915 0.4670839 0.818654 1.003934 0.8496044 0.4093291 0.6385387 0.3708081 1.238168 2.020554 1 -92
0.2784477 -0.5346401 -1.136229 -0.5495543 -1.859245 -0.6512883 -1.014278 -1.16564 0.1477151 -1.516547 0.2928944 -1.908919 0.3090328 -0.03004358 -1.015226 -0.6699564 -1.013142 0.3095456 -1.528406 0.1107696 0.1776473 1.166425 -1.45093 0.4028759 -0.2698902 0.7447252 1.269256 -0.01124701 0.8825455 -0.02247823 0.7228419 0.1375846 0.7168612 0.2918867 0.7569425 0.6843369 0.721328 0.3063534 0.5111644 0.1941971 1.395256 3.81703 1 -88
0.6636298 -0.2359094 -1.180917 -0.2285825 -1.50017 -0.4981412 -0.7853501 -0.7206478 0.2178113 -1.04527 -0.007174957 -1.133468 0.02325412 0.2249375 -0.6784534 -0.5954109 -0.7417296 0.1698595 -1.270788 0.2500754 0.2198207 1.030686 -1.480507 0.181135 -0.4709949 0.2965686 1.06938 -0.2191318 0.6715021 -0.2175617 0.3547111 -0.132674 0.5066848 0.03052108 0.5759141 0.2914501 0.4823221 0.1748132 0.2801124 -0.1157421 1.199322 4.344163 1 -84
0.8040485 0.0254428 -0.9097131 0.04022729 -1.046946 -0.1279116 -0.5038038 -0.02901152 0.2489245 -0.2747467 -0.3702558 0.1438026 -0.3294191 0.4808518 -0.2773659 -0.3491502 -0.4111472 0.04656506 -0.6380141 0.0402 0.3097062 0.9327807 -1.274831 -0.1165937 -0.7848091 -0.1970616 0.8716543 -0.3493606 0.4743944 -0.4136454 -0.07435738 -0.2396499 0.3285005 -0.1086572 0.4212161 0.007515539 0.3037082 0.02697238 0.103337 -0.1791012 0.7856749 2.61 1 -80
0.271991 0.2152054 -0.5642551 0.2263685 -0.6428435 0.00353008 -0.1806002 0.3319233 0.2818206 0.2632667 -0.5417074 0.9213023 -0.4992458 0.7860351 -0.0129349 0.1030932 -0.2058742 0.1437326 -0.09223006 -0.2980406 0.3891667 1.000172 -0.9928694 -0.2679935 -1.009575 -0.4404943 0.8404351 -0.3897595 0.4596877 -0.5731482 -0.3294146 -0.1659757 0.2862015 -0.08807018 0.3657949 -0.1413062 0.2525084 -0.0556167 0.07304677 0.1192664 0.8072687 -0.64991 1 -76
-0.8455924 0.2681969 -0.1729064 0.259926 -0.2934541 -0.08670556 0.1588789 0.2757039 0.4854141 0.3781149 -0.4942151 1.035731 -0.4511423 1.058173 0.08138111 0.5469191 -0.1107422 0.3580179 0.2219353 -0.6795517 0.3747147 1.046511 -0.7436774 -0.2848289 -0.9094799 -0.3965613 0.8490629 -0.4087112 0.4653325 -0.613754 -0.371085 -0.02620857 0.3095588 -0.08748102 0.3107015 -0.2398873 0.226612 -0.06113011 0.1235369 0.438725 1.342028 -3.338087 1 -72
-1.794398 0.2067847 0.2753743 0.168136 0.06982955 -0.1574925 0.4587626 0.1527586 0.8030983 0.3969442 -0.3412592 0.8893709 -0.2846014 1.203688 0.1865195 0.811346 0.01340626 0.4444767 0.4755086 -1.042206 0.2502365 0.8324777 -0.5288915 -0.2886055 -0.4559141 -0.1011387 0.6598983 -0.4653437 0.2886654 -0.4974134 -0.3331957 0.1004075 0.2581537 -0.2095654 0.1679236 -0.3374156 0.1295983 -0.05203827 0.1284048 0.4525964 1.872087 -4.806981 1 -68
-1.604313 0.1589625 0.6653186 0.09951042 0.4840918 -0.02299322 0.7029476 0.1757947 0.9237204 0.6029263 -0.1275162 0.6763454 -0.02573532 1.260311 0.4287592 0.9396647 0.1608365 0.3610553 0.6766186 -1.026755 0.07429807 0.4208837 -0.3677978 -0.315266 0.01842477 0.2238503 0.2282325 -0.5658775 -0.05388204 -0.3734342 -0.3813729 0.1226922 0.04863003 -0.3751751 -0.07425726 -0.4904151 -0.07865549 -0.1219365 -0.01089062 0.1982895 2.02923 -5.66507 1 -64
-0.2320356 0.2553721 0.8997297 0.2006567 0.9418474 0.3664145 0.8717878 0.4340823 0.6081432 0.8415045 0.05458406 0.5091875 0.1859575 1.321102 0.7713205 1.074344 0.2296286 0.2328099 0.6501205 -0.5787939 -0.08869039 0.09431552 -0.2456599 -0.4023837 0.1188897 0.09374664 -0.2649653 -0.63747 -0.4366639 -0.397242 -0.6830785 -0.07240462 -0.3709237 -0.4940377 -0.4377288 -0.6736947 -0.4328577 -0.3325345 -0.3203278 -0.07159343 1.61478 -5.197207 1 -60
1.499741 0.4578924 0.9635731 0.4262039 1.36281 0.8490289 0.9181519 0.6732489 0.04536378 0.7784505 0.177009 0.409219 0.2633656 1.355215 1.048445 1.225608 0.1743372 0.1220697 0.3298219 -0.08995451 -0.2213364 -0.06567308 -0.1342266 -0.56597 -0.1170227 -0.5716584 -0.61735 -0.6099043 -0.7625703 -0.5114509 -1.212262 -0.4553663 -0.9053169 -0.5750191 -0.8815909 -0.7899212 -0.8742002 -0.6401083 -0.7215785 -0.2313913 0.9181772 -2.443845 1 -56
2.7098 0.6682618 0.8849873 0.6577056 1.715629 1.229671 0.9668615 0.69559 -0.4483218 0.4828531 0.2992204 0.2608096 0.2961974 1.252117 1.176974 1.289025 0.09894183 0.02944303 -0.09671611 0.06960168 -0.2927708 -0.2469632 -0.08890894 -0.7489243 -0.2744907 -1.297813 -0.835572 -0.5353119 -1.01566 -0.5452297 -1.691141 -0.8466828 -1.350583 -0.6775474 -1.277478 -0.8492731 -1.266333 -0.9099528 -1.087529 -0.3952636 0.2872974 1.707456 1 -52
2.928306 0.9007828 0.6837828 0.9047254 2.03946 1.478655 1.218108 0.708622 -0.8231387 0.3255809 0.2915044 -0.007376752 0.2217241 0.9851967 1.283805 1.230287 0.1890521 -0.03333022 -0.380854 -0.1443164 -0.2465866 -0.5489919 -0.06542259 -0.8748535 -0.1000012 -1.652467 -1.018204 -0.4876816 -1.209223 -0.4389766 -1.870984 -1.106682 -1.57821 -0.8063563 -1.502488 -0.9561151 -1.49827 -1.039439 -1.296909 -0.6549829 -0.4040057 5.356216 1 -48
2.34304 1.086016 0.4760166 1.104023 2.263884 1.729986 1.568927 0.7581992 -1.103145 0.5010306 0.01074491 -0.2346832 -0.07829236 0.6730471 1.492269 1.118049 0.4846123 -0.07563992 -0.2973698 -0.6131589 -0.09870379 -0.7962316 0.1474358 -0.9373025 0.3492398 -1.584322 -1.113787 -0.3835366 -1.258866 -0.2323711 -1.753325 -1.120901 -1.573186 -0.81933 -1.521061 -1.055355 -1.531212 -1.015252 -1.305541 -0.845063 -1.085046 6.326163 1 -44
1.617431 1.025112 0.4252262 1.054479 2.205776 1.990099 1.719235 0.7466903 -1.269248 0.9213228 -0.4009538 -0.2267111 -0.4882402 0.4188232 1.668322 1.019132 0.8102679 -0.1268841 0.1675654 -1.229731 0.05436176 -0.7986143 0.6146949 -0.9654484 0.8476078 -1.339212 -1.029968 -0.09685851 -1.090627 0.05267085 -1.477962 -0.824036 -1.425047 -0.5715957 -1.393878 -0.9048599 -1.404361 -0.8857187 -1.184847 -0.7206982 -1.544539 4.041296 1 -40
1.167025 0.6390814 0.5622108 0.666788 1.778374 1.838909 1.483834 0.7612402 -1.248927 1.349975 -0.7160013 0.1402208 -0.8030554 0.1941285 1.570614 0.9009327 1.026277 -0.166754 0.8450092 -1.718813 0.1870472 -0.6024764 1.193125 -0.9071049 1.155591 -1.05513 -0.7770206 0.3478838 -0.7795907 0.3786987 -1.0817 -0.2955422 -1.180604 -0.1185803 -1.137054 -0.4535195 -1.128667 -0.6709996 -0.9636858 -0.3118245 -1.816054 -0.2538697 1 -36
0.6094774 0.041407 0.7287443 0.0528454 1.099458 0.8220565 0.9003727 0.7711243 -0.9170925 1.514273 -0.7973676 0.855616 -0.8824797 -0.05615516 1.145575 0.6366965 1.146729 -0.1378192 1.581376 -1.621287 0.3416881 -0.3850081 1.680007 -0.6198656 1.195908 -0.5507755 -0.4227503 0.809131 -0.3933209 0.6643139 -0.4828153 0.327366 -0.7581656 0.3513421 -0.7004322 0.05200844 -0.6588747 -0.29509 -0.5637513 0.1107081 -1.795657 -5.399566 1 -32
-0.4082936 -0.5132341 0.7420415 -0.5239897 0.4141164 -0.6872797 0.2590623 0.6032392 -0.3401012 1.17541 -0.6330721 1.335685 -0.6978548 -0.3849263 0.546643 0.1722579 1.120527 -0.06676996 1.897333 -0.7951154 0.4313254 -0.3159355 1.820873 -0.07121123 0.9987497 0.1748853 -0.1328353 1.081054 -0.01273009 0.8030096 0.2587647 0.7631277 -0.2182385 0.6332463 -0.1756043 0.3473305 -0.1199789 0.1900037 -0.06003822 0.2888955 -1.442469 -8.458005 1 -28
-1.45374 -0.7924259 0.5293605 -0.8146477 -0.09917445 -1.799008 -0.2255834 0.2685511 0.1604227 0.4819231 -0.3177535 1.001232 -0.3295254 -0.8063328 -0.02140375 -0.3783236 0.8616433 -0.06478225 1.448374 0.3041843 0.3207285 -0.4538155 1.578091 0.4945064 0.7514391 0.7497028 -0.07689235 1.036597 0.2006799 0.7840707 0.8613706 0.7921673 0.2084427 0.6694621 0.2362542 0.4175381 0.2546152 0.5415731 0.3118892 0.1836794 -1.106554 -6.708504 1 -24
-1.974253 -0.7668868 0.1188642 -0.768094 -0.4152912 -2.094537 -0.6417155 -0.1175024 0.3076091 -0.1442337 0.03330277 0.2615486 0.06651738 -1.205976 -0.4729755 -0.8425604 0.4442346 -0.1804305 0.6523212 1.091291 0.02938963 -0.6587753 1.214269 0.8107998 0.5554547 0.9296871 -0.2083782 0.7783576 0.253555 0.6645615 1.162539 0.5777259 0.4787192 0.6032497 0.4986879 0.4379325 0.4827964 0.6533617 0.5240333 0.0812223 -1.046863 -2.173569 1 -20
-1.980096 -0.5371403 -0.2725674 -0.4946364 -0.524412 -1.642228 -1.000691 -0.4266396 0.1605825 -0.5854187 0.2875531 -0.1388586 0.3110496 -1.45701 -0.8344103 -1.095259 0.002840806 -0.3492425 -0.0700757 1.413806 -0.3270786 -0.8030821 0.8491043 0.8844603 0.1231552 0.7587362 -0.4005419 0.4501846 0.2699469 0.4073225 1.249584 0.2919927 0.6969343 0.4948705 0.6850746 0.4207811 0.7006261 0.6047947 0.7032444 0.1681646 -1.159203 2.163867 1 -16
-1.936713 -0.2207117 -0.4717753 -0.1439625 -0.4578355 -0.8807827 -1.126519 -0.5402181 0.04329185 -0.8349761 0.425161 -0.1327069 0.3997029 -1.537931 -1.089866 -1.117811 -0.3260638 -0.4465438 -0.5381396 1.554117 -0.6203697 -0.9387077 0.4799759 0.9082631 -0.4516642 0.5194221 -0.5986288 0.118186 0.270172 0.08365008 1.295831 0.05178053 0.8819146 0.3023852 0.80913 0.3077562 0.8891506 0.5329466 0.8605685 0.2325653 -1.192461 4.638508 1 -12
-1.873868 0.03155979 -0.5177891 0.1189089 -0.3910809 -0.335762 -1.028941 -0.5592665 0.1910432 -0.8711271 0.5431141 -0.1691433 0.462112 -1.513488 -1.175735 -1.021718 -0.4487573 -0.4304475 -0.6415583 1.690556 -0.7994966 -1.12121 0.2147448 0.9709159 -0.6271455 0.5441095 -0.7882195 -0.1616835 0.2403054 -0.1093906 1.392817 0.03071856 1.011128 0.1037699 0.8780952 0.2079684 0.9806036 0.5658665 0.9503762 0.1128612 -0.9490898 4.293338 1 -8
-1.359013 0.0705735 -0.5385613 0.1550538 -0.4461785 -0.08359739 -0.9760924 -0.7574661 0.507773 -0.7861605 0.5941007 -0.7106284 0.473729 -1.47323 -1.117819 -0.948085 -0.4648646 -0.4144233 -0.7622123 1.665188 -0.9377863 -1.283576 0.08214114 0.9971581 -0.4462938 0.7783243 -0.9659471 -0.3666424 0.1758848 -0.1513991 1.446099 0.1192548 1.105504 0.03092322 0.9264883 0.2148208 1.005149 0.6915304 0.973563 -0.006283218 -0.4097438 3.392703 1 -4
-0.3586944 -0.02020155 -0.6588674 0.07821581 -0.5055009 0.01417616 -1.120677 -1.013077 0.6562181 -0.5160828 0.3993857 -1.497309 0.2745386 -1.381304 -1.01257 -0.8840569 -0.4749125 -0.4451961 -0.9695869 1.351217 -1.023532 -1.298948 0.06980955 0.9828846 -0.2194431 0.964885 -1.061838 -0.4532584 0.1158226 -0.1100298 1.386771 0.2276837 1.200327 0.1302186 0.9953462 0.3297909 1.05374 0.8260317 0.9909014 0.08847102 0.070557 2.818207 1 0
0.9727186 -0.01265151 -0.7185858 0.1176245 -0.4124084 0.04281969 -1.322598 -0.8192751 0.4933968 -0.09582186 -0.07029483 -1.704055 -0.1563164 -1.155449 -0.9189663 -0.7308323 -0.4216678 -0.4799463 -0.7015509 0.8226672 -0.9631981 -1.154727 0.2089588 0.9206066 0.1313206 1.005949 -1.027534 -0.3946932 0.108996 0.04334853 1.239728 0.501285 1.227696 0.3153613 1.048635 0.5101433 1.095721 0.9316912 1.023108 0.3168533 0.0219979 0.1599715 1 4
2.247652 0.01140063 -0.5154154 0.1537424 -0.2453113 0.05110905 -1.44917 -0.3062629 0.3220637 0.126151 -0.5850501 -1.448773 -0.5986386 -0.8975592 -0.8970268 -0.5601606 -0.3158545 -0.5884373 -0.2439641 0.1911243 -0.8228417 -1.034742 0.3469264 0.6812754 0.5353864 0.8350776 -0.8991791 -0.290161 0.07918185 0.2714029 0.9860011 0.7462807 1.126665 0.4452639 0.9918738 0.6177635 1.020397 0.9857302 0.9914055 0.466278 -0.2823476 -2.249197 1 8
2.760963 -0.1972728 -0.2517655 -0.06978453 -0.2190394 0.03072931 -1.560714 -0.07045508 0.3889237 0.002586327 -0.9138927 -1.451301 -0.860586 -0.6979513 -0.9664759 -0.4974383 -0.2699585 -0.8359184 -0.4229219 -0.538256 -0.7144224 -1.052069 0.2519825 0.2781341 0.5889077 0.4012848 -0.6877838 -0.2238979 -0.01641759 0.3916421 0.6845578 0.6082747 1.028633 0.4844458 0.8802187 0.5484259 0.8945568 1.001959 0.9164448 0.4775739 -0.2111268 0.1092338 1 12
2.325023 -0.5673503 -0.1655106 -0.4583026 -0.408615 -0.07698339 -1.761622 -0.1431829 0.5247393 -0.3421125 -1.073706 -1.708357 -0.9964413 -0.4515948 -1.040575 -0.4850098 -0.2971274 -1.1359 -1.163909 -1.255153 -0.5984901 -1.069805 -0.06313959 -0.1085423 0.1520277 -0.1282704 -0.3898866 -0.1785068 -0.02749021 0.3417631 0.4867951 0.233224 1.085645 0.5146285 0.8947563 0.4293047 0.9061936 1.048563 0.9487218 0.4792025 0.2277699 5.497241 1 16
1.404484 -0.77772 -0.2511406 -0.6767755 -0.6757501 -0.455788 -2.074408 -0.2721887 0.544118 -0.7614882 -1.157575 -1.919728 -1.084519 -0.09735878 -1.05094 -0.3971472 -0.3220294 -1.350207 -1.857168 -1.524212 -0.4143255 -0.9525613 -0.4001165 -0.3571494 -0.4842576 -0.478306 -0.03465984 -0.1368572 0.1478895 0.2199515 0.4371666 -0.01184391 1.263731 0.5887728 1.0854 0.4216298 1.082664 1.132688 1.113851 0.6264099 0.7255344 9.181854 1 20
0.8317813 -0.6808567 -0.4373957 -0.5690747 -0.8192289 -1.082888 -2.421369 -0.3681017 0.4388758 -1.008305 -1.193064 -1.911048 -1.138739 0.2763011 -0.9932861 -0.2055024 -0.2792093 -1.436184 -2.097217 -1.084121 -0.1827042 -0.7680767 -0.5623574 -0.4762284 -0.9449606 -0.6625395 0.2951471 -0.08030444 0.3678922 0.08972269 0.4058044 -0.06109226 1.41646 0.6586609 1.304305 0.4191475 1.271856 1.157031 1.290117 0.8706073 1.090194 9.279978 1 24
1.085461 -0.421195 -0.5723202 -0.2818155 -0.7513862 -1.46587 -2.64272 -0.311654 0.2286309 -0.8558899 -1.306196 -1.476131 -1.294973 0.5830805 -0.8745502 0.01703724 -0.05621323 -1.492165 -1.744448 -0.3850608 0.09595253 -0.6531788 -0.4190603 -0.6073496 -1.053647 -0.9556566 0.5229348 0.05028037 0.4416474 0.02379649 0.2220121 -0.0133899 1.461125 0.6916124 1.405233 0.2487201 1.353651 1.116773 1.380735 0.9980823 1.141351 6.566709 1 28
1.616469 -0.1646675 -0.4895657 -0.005103182 -0.5435252 -1.335438 -2.646901 -0.001055696 -0.020771 -0.4424602 -1.580011 -0.6958137 -1.600969 0.8016403 -0.7297879 0.1668447 0.3757246 -1.632924 -1.080622 -0.2250712 0.4318361 -0.6581106 -0.02669405 -0.943161 -0.9088449 -1.471735 0.6709475 0.2460595 0.3169499 0.1003947 -0.1730301 0.04445817 1.362973 0.7035128 1.336996 -0.009318709 1.27542 1.13563 1.321326 0.9061401 0.815235 3.756983 1 32
1.916216 0.03380547 -0.2411786 0.1876831 -0.3617532 -1.080892 -2.544141 0.3948034 -0.188557 -0.1354845 -1.820263 -0.07815886 -1.837785 0.9706782 -0.6017416 0.2838414 0.8248286 -1.818783 -0.6010079 -0.8000852 0.7715818 -0.7009746 0.3937559 -1.479729 -0.7042201 -1.978039 0.8117267 0.4112122 0.07937798 0.2845995 -0.6645918 0.06199536 1.11534 0.7285235 1.114706 -0.1399998 1.043006 1.213846 1.099237 0.7097755 0.4312769 2.895534 1 36
2.224801 0.1734229 -0.05606826 0.3150315 -0.3251715 -1.052289 -2.485531 0.5913478 -0.3259688 -0.1041592 -1.891553 0.0207457 -1.909417 1.205751 -0.4682502 0.5684404 1.136947 -1.885363 -0.4504808 -1.656148 1.084793 -0.5954397 0.7070868 -1.994186 -0.5467015 -2.224303 1.029986 0.5480087 -0.07636416 0.4645613 -1.059944 0.07681928 0.8147558 0.8356354 0.846943 -0.06575889 0.7883016 1.204824 0.8225883 0.5963916 0.3980815 2.717788 1 40
2.825554 0.3673618 -0.00230921 0.5160068 -0.2916586 -1.036543 -2.447574 0.657397 -0.6714966 -0.2056585 -1.881378 -0.2812608 -1.927281 1.597104 -0.2447247 1.083331 1.348069 -1.78144 -0.4981783 -2.554642 1.371704 -0.308461 0.9270946 -2.39161 -0.468328 -2.358441 1.312612 0.7187838 -0.05287236 0.559971 -1.359327 0.06523023 0.4817963 0.9900518 0.5700623 0.07367489 0.5364457 1.031195 0.5395398 0.5627598 0.5166165 2.110821 1 44
3.654182 0.7605997 0.1038594 0.9350485 0.01479295 -0.697242 -2.278184 0.9098865 -1.169234 -0.12364 -1.842578 -0.6004673 -1.912198 2.034672 0.08712917 1.650954 1.586089 -1.635585 -0.5339422 -3.363087 1.594566 -0.08586075 1.072697 -2.736904 -0.3926944 -2.631185 1.462901 0.8444964 -0.001060952 0.5668489 -1.698381 -0.05085032 0.02560736 1.016701 0.1784573 0.0676709 0.1327063 0.7240652 0.1668007 0.3606445 0.3373589 1.464447 1 48
4.27005 1.238678 0.312344 1.453206 0.5479576 -0.1088835 -1.944224 1.314431 -1.433113 0.3687858 -1.775357 -0.5599985 -1.841389 2.307113 0.4480215 2.090694 1.947317 -1.529569 -0.3322572 -3.77376 1.734102 -0.1098467 1.145124 -3.003568 -0.2112058 -3.043324 1.365202 0.8306834 -0.09436066 0.4940469 -2.065831 -0.2563708 -0.5034515 0.8377214 -0.3421257 -0.1519606 -0.4092123 0.3599633 -0.2797626 -0.1411371 -0.0261265 0.8713852 1 52
4.342445 1.478381 0.533514 1.73417 1.039683 0.3631353 -1.591857 1.531457 -1.348531 1.120152 -1.689339 -0.3281406 -1.739309 2.391941 0.8008751 2.416248 2.344646 -1.41716 -0.1111838 -3.846028 1.776567 -0.2781909 1.184618 -3.165556 -0.06555342 -3.592147 1.140739 0.7197922 -0.3229542 0.3228176 -2.39702 -0.5639331 -0.9373539 0.5679562 -0.8441644 -0.4903313 -0.8959221 0.02044526 -0.6670651 -0.739336 -0.1590237 1.360521 1 56
4.092171 1.420078 0.7986585 1.699253 1.424686 0.6653159 -1.336482 1.440426 -1.147601 1.659991 -1.614602 -0.3719606 -1.624361 2.405477 1.100408 2.735926 2.559887 -1.304366 -0.3428953 -3.739778 1.683004 -0.4253162 1.186472 -3.287549 -0.2592363 -4.280741 0.9065949 0.5444829 -0.5679573 0.02044634 -2.703717 -1.030091 -1.212589 0.3045753 -1.208351 -0.7955676 -1.219734 -0.3147177 -0.9512508 -1.196666 0.06629555 4.221516 1 60
3.762685 1.380141 1.206756 1.659147 1.801044 1.175722 -1.204298 1.320027 -1.001919 1.783346 -1.666259 -0.5497875 -1.61274 2.411016 1.267347 3.052282 2.56127 -1.263048 -0.873002 -3.504774 1.50475 -0.5348064 1.150415 -3.42025 -0.7255732 -4.924381 0.6605439 0.3328329 -0.7671766 -0.3430761 -3.007745 -1.518771 -1.461598 0.0425844 -1.501579 -0.925947 -1.441597 -0.6673035 -1.222903 -1.462129 0.3480787 8.180614 1 64
3.23297 1.576308 1.781955 1.820139 2.211343 1.954126 -1.157861 1.577126 -0.9165274 1.747066 -1.934152 -0.4058374 -1.858394 2.437644 1.369461 3.286117 2.568309 -1.276792 -1.125078 -3.582654 1.412024 -0.6819359 1.200528 -3.593662 -1.076724 -5.306797 0.4219244 0.2129971 -0.9637799 -0.5378409 -3.239022 -1.771272 -1.755088 -0.2120032 -1.776638 -0.855192 -1.644605 -0.9143012 -1.50363 -1.639914 0.2523591 10.6673 1 68
2.764498 1.934321 2.278555 2.112678 2.592862 2.505244 -1.105306 2.175561 -0.8029463 1.725653 -2.273497 -0.01488968 -2.2417 2.478611 1.558196 3.361847 2.700125 -1.270582 -1.095753 -4.13327 1.463416 -0.907508 1.312003 -3.744721 -1.278573 -5.29449 0.2064669 0.16023 -1.201301 -0.549476 -3.233164 -1.860545 -1.956852 -0.5314669 -1.950074 -0.8098519 -1.81418 -1.055584 -1.707381 -1.94337 -0.1436002 11.58974 1 72
3.228166 2.341966 2.359818 2.47662 2.86785 2.479419 -1.071571 2.680173 -0.6272357 1.672591 -2.48354 0.2708988 -2.50426 2.5176 1.873948 3.303871 2.828494 -1.217718 -1.197274 -4.583597 1.48134 -1.145355 1.286569 -3.728724 -1.609682 -4.911524 -0.03589009 -0.03220665 -1.421062 -0.6720785 -2.97582 -2.113929 -2.062278 -1.003868 -2.052721 -1.030027 -1.959373 -1.305034 -1.839149 -2.406573 -0.4208641 12.74202 1 76
4.422758 2.718834 2.059848 2.862496 3.001817 2.022693 -1.22086 2.818706 -0.4683879 1.598508 -2.505405 0.4267335 -2.542587 2.562536 2.183897 3.234276 2.795923 -1.108924 -1.425999 -4.479759 1.320341 -1.234837 1.146487 -3.51956 -2.041703 -4.421982 -0.2791899 -0.3646942 -1.510184 -0.9867868 -2.657723 -2.531782 -2.162538 -1.476686 -2.161509 -1.41449 -2.074839 -1.73272 -1.931044 -2.744666 -0.3954967 14.21854 1 80
5.077629 3.004765 1.744735 3.16359 2.991188 1.572689 -1.593195 2.608847 -0.27547 1.496168 -2.304334 0.4636361 -2.351302 2.537864 2.287731 3.163702 2.545006 -0.9493017 -1.591545 -3.882276 1.015087 -1.15705 0.982964 -3.230479 -2.262918 -4.037308 -0.4674812 -0.7120313 -1.485707 -1.291958 -2.421729 -2.878357 -2.192786 -1.787648 -2.22015 -1.758406 -2.087068 -2.185829 -1.947818 -2.816669 -0.06652237 15.29971 1 84
4.917218 3.213754 1.639923 3.352558 2.887451 1.511363 -1.996362 2.265534 0.06896787 1.348791 -1.936228 0.248224 -1.999097 2.307557 2.126328 2.969746 2.142037 -0.8438618 -1.746298 -3.150029 0.6377795 -1.165429 0.7194057 -3.010262 -2.106422 -3.751487 -0.6452697 -1.044262 -1.507478 -1.4408 -2.283123 -3.093989 -2.123387 -2.013184 -2.204164 -2.028977 -2.034467 -2.498256 -1.920299 -2.84911 0.336264 16.69933 1 88
4.443735 3.301439 1.60334 3.408842 2.736342 1.754803 -2.243066 1.971419 0.4188343 1.196137 -1.615657 -0.1818011 -1.669967 1.878342 1.817276 2.600444 1.753222 -0.892518 -1.942601 -2.644597 0.284979 -1.397378 0.398957 -2.92753 -1.664562 -3.534336 -0.8086196 -1.242062 -1.602808 -1.377143 -2.18016 -3.181635 -2.01038 -2.174206 -2.143746 -2.1687 -1.984833 -2.553646 -1.885988 -2.962923 0.4710519 18.95168 1 92
3.857852 3.147721 1.444965 3.237159 2.513585 1.904609 -2.354632 1.678331 0.5643461 0.9163789 -1.497579 -0.7546664 -1.535428 1.423284 1.536559 2.184561 1.427435 -1.018361 -2.2946 -2.510732 0.04898655 -1.617482 0.129148 -2.902466 -1.301674 -3.338687 -0.8584271 -1.205844 -1.60323 -1.180675 -2.047931 -3.164564 -1.882613 -2.122991 -2.039063 -2.057312 -1.907939 -2.361944 -1.814831 -2.970674 0.3646957 21.96476 1 96
3.419765 2.736721 1.34129 2.801692 2.273039 1.898918 -2.428207 1.360338 0.5621893 0.5228681 -1.551106 -1.38574 -1.582867 1.107039 1.349228 1.926204 1.054423 -1.082166 -2.873578 -2.759417 -0.08502186 -1.613901 -0.1144912 -2.91213 -1.322837 -3.168482 -0.7882672 -1.06858 -1.444239 -1.020521 -1.967234 -3.141129 -1.777941 -1.862829 -1.918087 -1.732812 -1.806196 -2.122147 -1.731988 -2.752135 0.2876232 25.37276 1 100
3.296762 2.152062 1.56294 2.16601 2.163698 1.961185 -2.42746 1.281892 0.550859 0.3787678 -1.786074 -1.614528 -1.802515 0.9712546 1.154971 1.895498 0.6435586 -1.091486 -3.129117 -3.450387 -0.1510635 -1.482329 -0.1970437 -3.116947 -1.325436 -3.211577 -0.6776909 -0.8998919 -1.263953 -0.8002466 -2.069523 -2.978669 -1.67872 -1.543257 -1.78819 -1.285548 -1.695019 -1.944096 -1.650915 -2.385983 0.1894061 27.07874 1 104
3.192844 1.597732 1.908836 1.564583 2.222844 2.097503 -2.248126 1.742777 0.5282394 0.6632575 -2.230148 -1.024838 -2.24158 0.9387832 0.8892632 1.969812 0.3936245 -1.171746 -2.437271 -4.397431 -0.1567269 -1.432899 0.1146282 -3.551182 -0.6813087 -3.486156 -0.5886788 -0.6320248 -1.220518 -0.3017954 -2.290937 -2.459668 -1.546391 -1.247567 -1.644018 -0.7786421 -1.562963 -1.729905 -1.533988 -2.057394 -0.266359 25.09554 1 108
3.066214 1.303728 1.964047 1.264367 2.323946 2.123965 -1.950189 2.552411 0.4145954 1.131175 -2.650634 -0.02662907 -2.703236 0.8821015 0.6028324 1.962695 0.3968926 -1.381158 -1.189647 -5.083639 -0.162299 -1.571642 0.7335869 -3.998961 0.4102874 -3.671683 -0.5894528 -0.3506696 -1.35416 0.3422301 -2.4488 -1.798822 -1.413821 -1.031646 -1.508004 -0.4009506 -1.416181 -1.446755 -1.387703 -1.948739 -1.129997 21.1403 1 112
3.093714 1.210467 1.671546 1.192908 2.272362 1.901413 -1.765001 3.061923 0.2038431 1.33572 -2.818567 0.5974103 -2.944586 0.746011 0.3157599 1.835205 0.440414 -1.60285 -0.2853807 -5.30062 -0.2219428 -1.758677 1.352677 -4.255788 1.283904 -3.590025 -0.6471147 -0.1654443 -1.502282 0.8548029 -2.459653 -1.327068 -1.25483 -0.8735582 -1.320812 -0.2238092 -1.213478 -1.15721 -1.184407 -1.917829 -1.94023 18.36099 1 116
3.222423 1.135452 1.400251 1.136333 2.060705 1.503468 -1.842139 3.068107 -0.0153829 1.104006 -2.775649 0.7812801 -2.951124 0.627602 0.02976418 1.73623 0.2959962 -1.691088 0.1218327 -5.240399 -0.3116722 -1.744252 1.766291 -4.275867 1.707941 -3.446831 -0.6268792 -0.01020186 -1.4594 1.163094 -2.403679 -0.9896715 -1.037026 -0.6663789 -1.05452 -0.0760438 -0.961606 -0.9030499 -0.8890381 -1.620584 -2.323897 16.45565 1 120
3.368364 1.031725 1.476274 1.041865 1.914641 1.121268 -2.127845 3.124605 -0.2385961 0.850979 -2.67876 1.164538 -2.82328 0.6111567 -0.1820809 1.714683 0.06947786 -1.71414 0.4889134 -5.122931 -0.3669279 -1.554553 1.93955 -4.190206 1.812446 -3.572328 -0.5287278 0.1818299 -1.282763 1.299458 -2.434008 -0.6581309 -0.8774752 -0.4074561 -0.8347142 0.1368198 -0.7812377 -0.7044662 -0.6057436 -1.076038 -2.639444 14.05326 1 124
3.263123 0.8995954 1.684035 0.9293098 1.932397 0.7846689 -2.446882 3.494124 -0.4896102 1.011216 -2.652051 2.009896 -2.718402 0.6419497 -0.2610854 1.664972 0.02709467 -1.807666 0.9907076 -4.978974 -0.3358862 -1.425004 1.954819 -4.153666 1.727128 -3.994292 -0.423165 0.3765082 -1.179863 1.375064 -2.582945 -0.3469861 -0.836224 -0.1752288 -0.735651 0.3968337 -0.6955418 -0.4971715 -0.4400932 -0.6108583 -3.214241 11.83807 1 128
3.045854 0.8495879 1.567215 0.9319018 2.039042 0.5741737 -2.625547 3.739306 -0.6867886 1.391822 -2.730352 2.766541 -2.753459 0.6339483 -0.24981 1.550171 0.1741783 -1.965489 1.341844 -4.655807 -0.2868866 -1.467734 1.861092 -4.162885 1.497437 -4.367346 -0.3355015 0.4832565 -1.228748 1.459853 -2.742199 -0.08378809 -0.7780788 -0.02075781 -0.6747487 0.6542189 -0.614871 -0.1933055 -0.3373159 -0.3829837 -3.663678 10.44666 1 132
3.465786 1.025853 1.075363 1.192448 2.179686 0.7565622 -2.619169 3.537563 -0.8329672 1.546819 -2.87056 2.808291 -2.878302 0.5515725 -0.1956231 1.441676 0.2391728 -2.11465 1.164504 -4.202148 -0.3832717 -1.603143 1.619042 -4.142459 1.071722 -4.492853 -0.3381426 0.4194954 -1.351256 1.414472 -2.8513 0.02120239 -0.6485667 0.05035509 -0.5971802 0.8136261 -0.5423874 0.1354102 -0.2427671 -0.2721598 -3.714354 10.36265 1 136
4.374447 1.298375 0.6471124 1.537784 2.314796 1.321026 -2.488955 3.109656 -1.006692 1.414839 -2.988396 2.129347 -2.977255 0.4314668 -0.07758696 1.484983 0.07499999 -2.16268 0.5417005 -3.999873 -0.6365474 -1.648026 1.297374 -4.104279 0.595834 -4.483162 -0.4465279 0.2565482 -1.423068 1.214442 -2.956111 -0.02499637 -0.5495602 0.1272618 -0.5452225 0.8896727 -0.5258259 0.3773961 -0.1662019 -0.02949739 -3.59427 11.39569 1 140
4.747433 1.38469 0.6443982 1.639074 2.411322 1.811886 -2.266441 2.886705 -1.230216 1.250107 -3.038106 1.343762 -3.024971 0.3101749 0.09070318 1.714837 -0.1671281 -2.102271 0.1537541 -4.394666 -0.8808084 -1.553429 1.149293 -4.15749 0.6130744 -4.481142 -0.5423814 0.1983335 -1.418176 1.154658 -3.098467 0.07331046 -0.5213512 0.3094918 -0.5160186 1.041754 -0.5171019 0.5963314 -0.08994942 0.4561644 -3.687895 11.7068 1 144
4.196028 1.188357 0.8896856 1.414543 2.433395 1.778571 -1.981382 3.00907 -1.500832 1.251062 -3.019103 0.9925308 -3.014373 0.1561409 0.1940251 1.907586 -0.2789184 -2.031592 0.4967897 -5.19138 -1.018728 -1.469829 1.349189 -4.313518 1.475934 -4.561633 -0.5314746 0.3546924 -1.387101 1.51303 -3.237153 0.5314059 -0.5254945 0.5882699 -0.4653683 1.37166 -0.4755485 0.947686 -0.006803243 0.9769773 -4.207128 10.20078 1 148
3.20387 0.8212931 0.9443783 1.032062 2.30004 1.200258 -1.782495 3.230905 -1.727663 1.408971 -2.877755 1.061285 -2.859833 -0.08022451 0.09006464 1.837292 -0.2648522 -1.985116 1.226674 -5.749506 -1.109801 -1.498452 1.697567 -4.423654 2.681013 -4.719662 -0.433977 0.6111756 -1.334 2.143262 -3.273748 1.134134 -0.5071537 0.8679919 -0.3968159 1.765437 -0.4116291 1.405605 0.08080336 1.255182 -4.900803 8.337917 1 152
2.326488 0.4488329 0.6665558 0.6781371 1.998026 0.4564959 -1.778815 3.298888 -1.78586 1.618813 -2.598507 1.271132 -2.546808 -0.3963548 -0.2020398 1.581591 -0.3017257 -1.936061 1.607085 -5.774877 -1.229074 -1.580283 1.843663 -4.387538 3.273062 -4.843841 -0.3387417 0.751289 -1.2202 2.557046 -3.151513 1.415177 -0.4057577 1.027891 -0.3096303 1.967646 -0.2933546 1.68567 0.1874145 1.259988 -5.3426 8.502701 1 156
1.734299 0.1890521 0.4159735 0.4403756 1.722872 -0.01094911 -1.819888 3.272484 -1.673347 1.747366 -2.317443 1.3609 -2.236107 -0.6842727 -0.4727847 1.439852 -0.4666698 -1.861948 1.405461 -5.493808 -1.387175 -1.585911 1.739735 -4.19978 2.944828 -4.73897 -0.3154559 0.7154068 -1.011175 2.497586 -2.917527 1.254383 -0.2332525 1.053223 -0.1787344 1.894964 -0.118804 1.606999 0.3172317 1.158805 -5.438737 10.25095 1 160
1.586576 0.1327487 0.5508859 0.3805409 1.673066 -0.02185154 -1.694991 3.387786 -1.479076 1.658396 -2.139664 1.247424 -2.075193 -0.8219135 -0.6095795 1.553806 -0.6669403 -1.716458 0.9440624 -5.15443 -1.586572 -1.470517 1.526958 -3.881 2.153721 -4.375012 -0.376982 0.5930246 -0.7433897 2.167746 -2.685123 0.9611701 -0.1359625 0.9910057 -0.07411657 1.73101 -0.02160183 1.318149 0.4050492 1.065296 -5.42454 11.1265 1 164
1.949733 0.2702339 0.8732976 0.4985795 1.768892 0.1783042 -1.391021 3.607633 -1.211815 1.488207 -1.992657 1.118367 -1.999034 -0.8463671 -0.6672968 1.764499 -0.7807218 -1.505008 0.554624 -4.774548 -1.803586 -1.363464 1.279219 -3.492559 1.389853 -3.96322 -0.4992809 0.4001414 -0.556322 1.900944 -2.529278 0.7601593 -0.2206054 0.7679171 -0.1148961 1.616615 -0.1013967 1.027341 0.3362654 0.87913 -5.367794 10.75096 1 168
2.230313 0.4190017 1.022732 0.6364289 1.842529 0.217504 -1.050465 3.692487 -0.8191993 1.511735 -1.766645 1.29284 -1.842492 -0.9044204 -0.6706213 1.867516 -0.7797085 -1.336054 0.5101897 -4.212703 -1.968362 -1.396949 1.073711 -3.081878 0.9932974 -3.627587 -0.6613716 0.1163999 -0.5350705 1.853798 -2.405898 0.6945521 -0.3663433 0.3614504 -0.2587017 1.539722 -0.246589 0.7851005 0.1570243 0.465556 -5.140843 9.788122 1 172
2.016907 0.4979961 0.9885053 0.7234442 1.9032 0.1396433 -0.8040451 3.625518 -0.4413437 1.58948 -1.469339 1.714896 -1.579066 -1.032663 -0.6038313 1.86034 -0.764468 -1.273646 0.7492139 -3.554728 -2.093549 -1.517251 0.9388416 -2.700192 0.987188 -3.383157 -0.8509799 -0.1992977 -0.5848122 1.899897 -2.278547 0.6929055 -0.4498247 -0.0443089 -0.3947227 1.476647 -0.3425679 0.5347792 0.02535604 -0.02991119 -4.86672 8.894257 1 176
1.839582 0.6225023 0.8982639 0.8662254 2.015634 0.2229303 -0.6534039 3.546721 -0.2612637 1.471421 -1.241985 1.868109 -1.377354 -1.087706 -0.4820616 1.888321 -0.829731 -1.274161 0.7719497 -3.234747 -2.254587 -1.591354 0.8021767 -2.432201 1.012672 -3.231418 -1.055311 -0.4923687 -0.6010265 1.781637 -2.196772 0.541761 -0.5336346 -0.3300029 -0.5199983 1.362883 -0.4285856 0.2147669 -0.06933913 -0.3481599 -4.687926 9.487552 1 180
2.124633 0.8373786 0.8431675 1.088146 2.189649 0.4911561 -0.5048528 3.538162 -0.2002821 1.327338 -1.187429 1.668381 -1.364734 -0.9568011 -0.3297915 2.016901 -0.9399166 -1.260002 0.5405051 -3.390357 -2.43425 -1.606913 0.6270003 -2.255174 0.9491995 -3.016722 -1.310214 -0.7419661 -0.6196468 1.492636 -2.105357 0.2474675 -0.6819542 -0.577517 -0.6464238 1.163555 -0.5485052 -0.144468 -0.2176112 -0.5043339 -4.5396 10.93952 1 184
2.620146 1.092021 0.8878675 1.332032 2.395192 0.8162283 -0.3245316 3.491125 -0.1118041 1.262895 -1.190993 1.456949 -1.369586 -0.7814332 -0.1951908 2.133973 -1.01754 -1.194196 0.3992843 -3.612353 -2.58139 -1.68543 0.4310707 -2.062495 0.961136 -2.588712 -1.650109 -0.9365759 -0.7101654 1.255051 -1.866619 0.01637931 -0.8453616 -0.8888519 -0.7495695 0.9396319 -0.6859707 -0.4585593 -0.3976726 -0.7339544 -4.343577 11.49166 1 188
3.083723 1.30269 0.931785 1.535291 2.511518 1.115092 -0.2120132 3.212727 0.03861548 1.113596 -1.050477 1.338548 -1.145733 -0.8101795 -0.1977077 2.07272 -1.074151 -1.127757 0.3586577 -3.589628 -2.715723 -1.907262 0.2465518 -1.834099 1.079156 -2.100273 -2.026312 -1.076189 -0.8544489 1.146423 -1.491227 -0.1298387 -0.9111216 -1.245052 -0.8032178 0.7311954 -0.7808537 -0.6889098 -0.5167846 -1.137998 -4.058982 11.66763 1 192
3.450192 1.354173 0.8351255 1.59946 2.472821 1.400937 -0.2051782 2.822709 0.1653363 0.8824549 -0.7100406 1.222496 -0.7201335 -1.048545 -0.3803901 1.839976 -1.1978 -1.102819 0.2365193 -3.361637 -2.898556 -2.1755 0.07850656 -1.638774 1.164521 -1.831445 -2.373688 -1.158185 -0.973692 1.056817 -1.125174 -0.2879628 -0.842486 -1.516231 -0.8029433 0.5727032 -0.7906019 -0.8694305 -0.5123346 -1.545709 -3.829822 12.74433 1 196
3.549436 1.225932 0.6360574 1.490762 2.395697 1.620088 -0.177413 2.582353 0.1302759 0.636283 -0.3436685 0.9648743 -0.3586398 -1.248391 -0.5859861 1.657549 -1.425972 -1.064319 -0.09109133 -3.100157 -3.108756 -2.282305 -0.08146789 -1.491278 1.052813 -1.805862 -2.630939 -1.178434 -0.9765251 0.8885161 -0.8441265 -0.5027782 -0.7036629 -1.605797 -0.7454434 0.4813218 -0.7234364 -1.069878 -0.3917832 -1.707623 -3.801953 14.73578 1 200
3.150424 0.9522514 0.500661 1.217567 2.337095 1.506338 -0.07314715 2.462301 -0.02699125 0.3756801 -0.2047498 0.6666527 -0.2804092 -1.274788 -0.6914791 1.66468 -1.645916 -0.9807932 -0.4262013 -3.073415 -3.212221 -2.158858 -0.1469432 -1.342224 0.8717339 -1.850434 -2.721474 -1.105671 -0.8139946 0.7315155 -0.5859747 -0.6565099 -0.491881 -1.559995 -0.5612853 0.4450365 -0.534312 -1.232869 -0.1733916 -1.531484 -3.832109 16.30759 1 204
2.356602 0.6126371 0.5759515 0.8477333 2.236775 1.056659 0.07094357 2.394892 -0.1164277 0.2317416 -0.3165114 0.6150745 -0.4145149 -1.244384 -0.7206697 1.724483 -1.650863 -0.9164773 -0.4191212 -3.341388 -3.147773 -2.024803 -0.0199021 -1.241933 0.943677 -1.88158 -2.675667 -0.9451898 -0.6218312 0.6916798 -0.3311425 -0.6554646 -0.2295355 -1.538879 -0.2749743 0.3748984 -0.2457097 -1.253441 0.07648778 -1.221869 -3.830864 16.47067 1 208
1.763659 0.3861232 0.8219306 0.5752617 2.146264 0.6648813 0.2851452 2.511893 -0.01574031 0.3896521 -0.5279791 0.8064401 -0.6100159 -1.273386 -0.6546156 1.678945 -1.344336 -0.9381537 -0.1513968 -3.605029 -2.99335 -2.108745 0.251228 -1.303375 1.186631 -1.923698 -2.64821 -0.7868512 -0.6057737 0.6207902 -0.2038447 -0.695057 -0.07223277 -1.654125 -0.09515309 0.084368 -0.0585509 -1.196573 0.2146204 -1.085145 -3.905413 16.06898 1 212
1.702535 0.3317332 1.046076 0.4939122 2.168804 0.53918 0.530878 2.908199 0.1115617 0.8020667 -0.8338354 1.032248 -0.9122049 -1.353481 -0.4605116 1.57832 -0.8955008 -1.074359 -0.002889351 -3.587508 -2.868709 -2.32886 0.5290236 -1.482967 1.18174 -2.033407 -2.717419 -0.6840491 -0.732037 0.3945964 -0.2923026 -0.9291502 -0.09033504 -1.775009 -0.09497673 -0.3781361 -0.04312688 -1.146375 0.2221114 -1.075426 -4.257317 16.47697 1 216
1.955757 0.3678774 1.10127 0.5443533 2.267966 0.5357673 0.6287438 3.442502 -0.03821805 1.244386 -1.281047 1.16463 -1.363201 -1.446041 -0.2406523 1.519355 -0.5517259 -1.301777 0.002803911 -3.283915 -2.809984 -2.447317 0.8007455 -1.628593 0.9477554 -2.236174 -2.809591 -0.5735816 -0.8052817 0.1816557 -0.5247025 -1.131948 -0.1448833 -1.641659 -0.0886139 -0.6966583 -0.02509455 -1.03833 0.2485157 -0.8462358 -4.975148 16.97629 1 220
2.467469 0.4352031 0.9691334 0.6548576 2.268074 0.4257923 0.4475459 3.79993 -0.4237014 1.537668 -1.723595 1.312979 -1.807732 -1.56948 -0.1796214 1.428069 -0.3595934 -1.565589 0.2169171 -2.987225 -2.722047 -2.404413 1.165772 -1.713637 0.8825573 -2.458322 -2.81093 -0.3596386 -0.7261954 0.1529305 -0.74333 -0.9994131 0.002927986 -1.247486 0.1284255 -0.724777 0.1794686 -0.7452486 0.469773 -0.2679422 -5.763935 15.35833 1 224
3.298782 0.4465798 0.8003128 0.7062018 2.046428 0.1448132 0.04072202 3.907346 -0.792848 1.57538 -1.977402 1.804177 -2.061222 -1.80137 -0.370376 1.138135 -0.2300561 -1.846314 0.7657263 -3.071205 -2.575438 -2.354462 1.549083 -1.795429 0.9738178 -2.548776 -2.695799 -0.05175954 -0.5380561 0.2692482 -0.7807577 -0.5294665 0.4548254 -0.8294184 0.6021996 -0.5544779 0.621121 -0.2130833 0.9732002 0.4515961 -6.45311 11.50113 1 228
4.14134 0.3044059 0.7734093 0.5801713 1.699694 -0.1392281 -0.4199118 4.020878 -1.084106 1.482636 -2.11262 2.551557 -2.18884 -2.124326 -0.669256 0.6641594 -0.09340572 -2.113415 1.396543 -3.672352 -2.434132 -2.390296 1.784782 -1.873687 1.013738 -2.428484 -2.525269 0.290044 -0.3144007 0.4840377 -0.5875854 0.07528577 1.030449 -0.4555256 1.169164 -0.2891347 1.149912 0.4837831 1.626844 1.089571 -7.214789 7.318295 1 232
4.710941 0.04357249 0.7969394 0.3187036 1.341757 -0.3069334 -0.811543 4.15195 -1.379528 1.362547 -2.308292 2.782404 -2.379685 -2.376324 -0.8653767 0.2261942 0.004119013 -2.274038 1.647171 -4.483549 -2.294783 -2.370226 1.835894 -1.917213 1.023507 -2.194509 -2.313208 0.6320226 -0.04159942 0.7097113 -0.3140783 0.5355794 1.472874 -0.05922755 1.609502 -0.06060506 1.556806 1.150671 2.188751 1.596481 -7.925245 4.977963 1 236
5.054462 -0.2086314 0.7893419 0.05899807 1.027098 -0.3319662 -1.059325 4.007346 -1.692302 0.9826885 -2.532154 2.201181 -2.598027 -2.467469 -0.9463941 0.03255062 -0.06032694 -2.264917 1.305375 -4.983872 -2.153782 -2.169734 1.731981 -1.92764 0.9585614 -2.048544 -2.046474 0.924588 0.2751647 0.7351791 -0.1519055 0.6698968 1.698626 0.3208545 1.852533 0.02691237 1.785578 1.60067 2.540083 2.072036 -8.187945 5.179757 1 240
5.159903 -0.4242427 0.9746404 -0.1790013 0.8632328 -0.1053386 -1.105106 3.608652 -1.960086 0.4113576 -2.675089 1.508249 -2.701891 -2.455846 -0.9911672 0.1041365 -0.2522282 -2.16187 0.819446 -5.069676 -2.032103 -1.913538 1.60185 -1.985031 0.8299239 -2.193575 -1.801034 1.141867 0.5078419 0.5894105 -0.1858533 0.6384152 1.750209 0.6570213 1.938608 0.05214798 1.860635 1.845326 2.685564 2.574017 -8.043782 6.113996 1 244
4.965545 -0.6841741 1.367748 -0.4733073 0.8652236 0.2996982 -0.9827392 3.32338 -2.155757 0.09851516 -2.704993 1.266239 -2.661032 -2.432003 -1.016249 0.234791 -0.393663 -2.099782 0.6503797 -4.928246 -1.93405 -1.805996 1.575985 -2.166314 0.8639007 -2.692364 -1.684041 1.277966 0.5288437 0.5232233 -0.4128122 0.625299 1.669827 0.9140956 1.891924 0.07942324 1.796706 1.993678 2.675128 2.90116 -7.946582 6.785427 1 248
4.678738 -0.9390507 1.652306 -0.7500411 0.9581303 0.6236196 -0.8281214 3.358635 -2.266001 0.2129688 -2.647322 1.41243 -2.572796 -2.434697 -1.009832 0.2537257 -0.3807374 -2.118027 0.7574812 -4.681037 -1.859997 -1.888549 1.600838 -2.448634 1.077733 -3.356796 -1.711385 1.335262 0.3525663 0.5922105 -0.7377527 0.6199647 1.530723 1.025635 1.749334 0.06343862 1.651288 2.122478 2.594403 2.878741 -8.117768 7.645967 1 252
4.502578 -1.019866 1.567084 -0.8241687 1.019522 0.7588182 -0.7970343 3.573963 -2.332465 0.5986261 -2.674406 1.542418 -2.63563 -2.412969 -0.9712334 0.1981962 -0.2766674 -2.183996 0.8578532 -4.571749 -1.771594 -1.995978 1.595316 -2.746303 1.254169 -3.832489 -1.766311 1.354827 0.15607 0.6985823 -0.9905768 0.6147329 1.472463 1.084248 1.663403 0.03268891 1.562245 2.270241 2.547627 2.723364 -8.393827 8.548233 1 256
4.270334 -0.9987335 1.065794 -0.7699133 0.888818 0.5955877 -0.9343749 3.709708 -2.437667 0.8478721 -2.923187 1.340732 -2.934788 -2.307262 -0.9596493 0.13462 -0.2128833 -2.260729 0.7718384 -4.691877 -1.628204 -1.920522 1.608862 -2.952136 1.350442 -3.951659 -1.667731 1.415118 0.133798 0.8286796 -1.08955 0.6598354 1.594834 1.261968 1.78195 0.1465234 1.656476 2.380325 2.620656 2.752512 -8.512371 9.335931 1 260
3.84452 -1.062072 0.4137777 -0.7849228 0.5805501 0.05809833 -1.185798 3.762916 -2.605257 0.6347059 -3.372277 1.132331 -3.428491 -2.120877 -1.016323 0.07220986 -0.1525223 -2.316295 0.6624876 -4.849646 -1.397261 -1.607669 1.720931 -3.022091 1.377901 -3.945728 -1.336006 1.609626 0.3466884 0.9934983 -1.06876 0.832757 1.881384 1.557068 2.096971 0.5066622 1.933505 2.456429 2.866396 2.987158 -8.498562 9.441987 1 264
3.489642 -1.141275 -0.08048877 -0.8173122 0.2461431 -0.5407346 -1.497417 3.934728 -2.844987 0.2690704 -4.006987 1.30317 -4.099007 -1.918196 -1.036717 -0.0275821 0.08445931 -2.368603 0.6481354 -5.169495 -1.050923 -1.21716 1.879106 -3.031935 1.147904 -4.006143 -0.8872301 1.90567 0.6798861 1.103891 -0.9148821 1.045884 2.238002 1.781253 2.50239 0.9043026 2.296027 2.591392 3.237207 3.185538 -8.682093 8.865358 1 268
3.484885 -1.161578 -0.3892583 -0.8039114 -0.04156306 -0.812035 -1.81869 4.190014 -3.065101 0.2084498 -4.719534 1.593337 -4.82183 -1.802878 -0.9471331 -0.2391093 0.5091124 -2.458993 0.5273107 -5.853628 -0.6535404 -0.9719957 1.92633 -3.031181 0.6144041 -3.953228 -0.5007317 2.133492 0.9442112 1.074043 -0.6181837 1.080658 2.540126 1.827205 2.842834 1.08046 2.618376 2.758732 3.564298 3.118782 -9.071999 9.099102 1 272
3.774532 -1.240748 -0.5301575 -0.8668647 -0.2669493 -0.7363306 -2.172693 4.307084 -3.075447 0.4029775 -5.258387 1.702695 -5.35329 -1.821311 -0.8365526 -0.5757395 0.9029831 -2.584058 0.2805352 -6.422765 -0.3612238 -0.9081427 1.839862 -2.961396 0.06805813 -3.675025 -0.2677431 2.22245 1.082642 0.970396 -0.3343427 0.9729277 2.709685 1.814923 3.001959 1.118657 2.808838 2.863307 3.722254 2.839386 -9.266221 10.1093 1 276
4.028889 -1.49543 -0.4901832 -1.118215 -0.4403238 -0.5541676 -2.621796 4.157217 -2.921089 0.6248799 -5.43721 1.697703 -5.521906 -1.912869 -0.7870432 -0.942699 1.110481 -2.739047 0.1276844 -6.398181 -0.2408165 -0.871755 1.796419 -2.834401 -0.2462733 -3.435733 -0.1611934 2.282059 1.185311 0.9397778 -0.2446455 0.9520884 2.782698 1.920076 3.020515 1.286187 2.89135 2.889811 3.73169 2.62031 -9.063224 10.43305 1 280
4.003073 -1.835014 -0.4526232 -1.448838 -0.6016124 -0.5046175 -3.078629 3.755911 -2.885511 0.7919431 -5.258305 1.638115 -5.336119 -1.954303 -0.7751848 -1.19017 1.198786 -2.897024 0.1257273 -6.096123 -0.1534443 -0.7216012 1.906695 -2.752434 -0.3349695 -3.423193 -0.04006187 2.410285 1.329945 1.032561 -0.3393851 1.090358 2.830211 2.159508 3.011009 1.66023 2.94582 2.87316 3.680109 2.557215 -8.633965 9.712561 1 284
3.75548 -1.974874 -0.4898733 -1.576518 -0.7204022 -0.7091812 -3.391465 3.408207 -3.055782 0.8107652 -4.877796 1.565683 -4.947948 -1.901746 -0.7264214 -1.272589 1.301879 -2.959797 0.2900946 -5.807206 0.03021912 -0.5049486 2.125963 -2.707606 -0.1817512 -3.459126 0.1682583 2.587706 1.489568 1.214542 -0.4853254 1.29413 2.812399 2.366045 2.985831 2.003476 2.937968 2.81815 3.605081 2.450447 -8.350163 8.078616 1 288
3.261994 -1.889491 -0.502608 -1.495769 -0.7699127 -1.216319 -3.525389 3.289761 -3.222781 0.5681536 -4.452991 1.501123 -4.493473 -1.865547 -0.6627086 -1.303817 1.419944 -2.875012 0.5849156 -5.350662 0.23602 -0.4071409 2.391589 -2.626276 0.3026797 -3.391015 0.3616963 2.752414 1.588144 1.460169 -0.5882908 1.429988 2.676838 2.413208 2.896127 2.087301 2.810803 2.716588 3.500939 2.145518 -8.324601 6.567852 1 292
2.519435 -1.875985 -0.5021021 -1.499472 -0.75916 -1.883769 -3.514562 3.216724 -3.29818 0.1968209 -4.057475 1.330045 -4.052879 -1.881317 -0.6871281 -1.294342 1.421774 -2.684326 0.7562239 -4.783741 0.3215416 -0.4583454 2.609892 -2.544387 0.9094439 -3.357665 0.4370188 2.845681 1.616687 1.715935 -0.6477684 1.416156 2.514313 2.347185 2.7862 2.000128 2.656747 2.543642 3.415705 1.747444 -8.348135 6.806032 1 296
2.039675 -1.942155 -0.4267847 -1.581633 -0.56543 -2.206819 -3.351555 3.267407 -3.407418 0.02504354 -3.783995 1.176124 -3.760556 -1.830511 -0.7760705 -1.0858 1.239147 -2.457517 0.6922501 -4.485801 0.2346052 -0.5009148 2.665597 -2.588471 1.204135 -3.583472 0.3599787 2.820154 1.597336 1.874168 -0.8064504 1.249289 2.323755 2.229556 2.648889 1.919242 2.484749 2.213225 3.295046 1.420051 -8.468689 8.63054 1 300
2.381284 -1.744539 -0.2169171 -1.392153 -0.09896856 -1.77757 -3.043672 3.573301 -3.510482 0.1503442 -3.779508 1.287876 -3.772836 -1.678302 -0.8195309 -0.6629823 0.9882059 -2.266386 0.5789793 -4.576164 0.07211317 -0.4564322 2.568958 -2.801931 1.107091 -4.015249 0.1724961 2.687591 1.515774 1.875108 -1.181584 0.9672241 1.958872 2.051516 2.335741 1.834088 2.13575 1.702171 2.939729 1.154987 -8.697591 10.45365 1 304
3.419291 -1.278379 -0.02297341 -0.9195316 0.4302836 -0.926359 -2.731687 3.937177 -3.46633 0.4157573 -4.092669 1.669666 -4.100084 -1.489871 -0.7952316 -0.2494479 0.8929005 -2.190322 0.7525473 -4.994392 0.01403083 -0.4167086 2.535158 -3.093692 1.101448 -4.331661 0.005356832 2.591827 1.377351 1.905905 -1.583294 0.8007941 1.526082 1.83875 1.916802 1.790133 1.677483 1.208832 2.4266 0.8338282 -8.779019 10.39364 1 308
4.414282 -0.9571661 -0.0124348 -0.5758958 0.7452347 -0.2937001 -2.551359 4.23823 -3.36188 0.6950139 -4.574898 2.292894 -4.582196 -1.309435 -0.7524138 -0.05941848 1.057356 -2.310223 1.431705 -5.841117 0.09281549 -0.4952941 2.769598 -3.416567 1.672954 -4.398298 -0.0722511 2.65591 1.198119 2.227928 -1.758108 0.9734623 1.296061 1.667624 1.664404 1.922155 1.39247 0.9515865 2.079025 0.397494 -8.7881 8.274493 1 312
4.776393 -0.9732285 -0.1000987 -0.5699931 0.8524919 -0.004995216 -2.506687 4.395039 -3.312374 0.8865337 -4.923352 2.892848 -4.934842 -1.193968 -0.7230244 -0.0820705 1.31794 -2.583364 2.2066 -6.825263 0.1563248 -0.6753671 3.122135 -3.739943 2.55201 -4.317781 -0.1241983 2.761443 1.001967 2.652736 -1.712821 1.229893 1.275116 1.572684 1.605542 2.081258 1.343929 0.8565616 1.97335 -0.05889086 -8.83513 6.684583 1 316
4.514881 -1.181451 -0.0525859 -0.7807324 0.9075999 0.08053498 -2.539638 4.208325 -3.284828 0.8200921 -4.902611 2.976009 -4.905665 -1.150247 -0.7350826 -0.1529107 1.424599 -2.797742 2.414102 -7.209217 0.1424284 -0.7979525 3.272889 -3.907914 3.000765 -4.155597 -0.1676393 2.761465 0.8912973 2.788891 -1.571699 1.26249 1.304143 1.543204 1.586194 2.12823 1.389904 0.7696754 1.964419 -0.2919416 -8.617899 7.051094 1 320
3.898815 -1.383716 0.1364006 -1.011802 0.9529415 -0.09845729 -2.543531 3.785412 -3.324373 0.4678385 -4.585155 2.647248 -4.571407 -1.08817 -0.7891833 -0.147811 1.338466 -2.813477 2.153149 -6.951283 0.1500862 -0.7367765 3.232072 -3.848644 2.866627 -3.984916 -0.1180417 2.732729 0.9310226 2.69048 -1.405153 1.25092 1.334323 1.575968 1.594459 2.219682 1.457637 0.7775188 2.001081 -0.1225099 -8.171686 7.501222 1 324
3.221987 -1.438986 0.1906235 -1.087739 0.9792321 -0.4866555 -2.472503 3.390365 -3.45593 0.06838613 -4.23285 2.453822 -4.224305 -1.024867 -0.8213419 -0.1032776 1.206546 -2.759447 1.931943 -6.639106 0.1757079 -0.655315 3.178379 -3.725972 2.559882 -3.937985 -0.01371709 2.751995 0.9899799 2.605243 -1.235776 1.368882 1.406024 1.636697 1.676043 2.386863 1.53793 0.9904266 2.097986 0.2860039 -7.890483 7.115347 1 328
3.006577 -1.237839 -0.04161144 -0.8691189 1.066134 -0.7363767 -2.388688 3.103532 -3.543409 -0.1401242 -3.911379 2.562115 -3.918895 -1.116154 -0.8049902 -0.1414959 1.096102 -2.832081 1.824108 -6.288696 0.08909616 -0.855648 3.071792 -3.708026 2.256891 -4.024791 -0.07391834 2.691346 0.8771027 2.50663 -1.114857 1.450024 1.485424 1.582149 1.729469 2.43693 1.566727 1.305909 2.172338 0.5577629 -7.865796 7.175784 1 332
3.583342 -0.797003 -0.3362069 -0.3891125 1.275807 -0.6902736 -2.320156 2.995187 -3.578439 -0.1004597 -3.540443 2.738369 -3.554723 -1.389593 -0.7707203 -0.225345 0.9788986 -3.028896 1.764424 -5.643091 -0.1406437 -1.315232 2.934258 -3.797488 1.996669 -4.111452 -0.3790692 2.484555 0.592828 2.317428 -1.099707 1.41422 1.504791 1.363774 1.685058 2.284624 1.525494 1.574638 2.176833 0.6051909 -8.072879 7.48461 1 336
4.246393 -0.4528079 -0.4408759 -0.01437014 1.504795 -0.5368687 -2.312613 2.991092 -3.668714 0.1535118 -3.269889 2.739579 -3.272963 -1.648108 -0.7202529 -0.213964 0.8694789 -3.23494 1.839089 -5.076323 -0.4184258 -1.715024 3.003253 -3.942914 1.978442 -4.135352 -0.6978766 2.322473 0.3286401 2.181053 -1.143821 1.445153 1.546028 1.233441 1.6771 2.132261 1.547868 1.786166 2.241754 0.7488954 -8.358727 6.758313 1 340
4.187505 -0.4972231 -0.1943504 -0.0615438 1.698882 -0.4587803 -2.399343 2.969902 -3.746271 0.5278665 -3.206753 2.553891 -3.196273 -1.741416 -0.6522132 -0.06706917 0.782307 -3.362873 2.042451 -4.84036 -0.6555497 -1.872307 3.259205 -4.09172 2.15879 -4.09318 -0.8540881 2.332048 0.2152322 2.20165 -1.138451 1.689348 1.716393 1.357495 1.82276 2.200155 1.717889 1.987854 2.472085 1.19618 -8.477187 4.517059 1 344
3.85208 -0.7239444 0.384964 -0.3262283 1.94509 -0.4363789 -2.406786 2.959804 -3.710581 0.8289871 -3.217866 2.333779 -3.207697 -1.765185 -0.6398928 0.1665473 0.7120552 -3.376414 2.266779 -4.549244 -0.8339781 -1.892826 3.379351 -4.154791 2.25791 -3.885896 -0.9430151 2.355278 0.1967192 2.242628 -0.9766877 2.058536 2.006318 1.521677 2.112565 2.350826 1.985438 2.188078 2.841463 1.705245 -8.481823 0.8771333 1 348
3.959093 -0.8026935 0.8324649 -0.4335191 2.213265 -0.373753 -2.178467 2.909985 -3.653958 0.8904845 -3.285418 2.196978 -3.28037 -1.864487 -0.7538786 0.3559453 0.6646063 -3.327907 2.419702 -4.098456 -0.9792803 -1.94703 3.246464 -4.099313 2.208663 -3.455659 -1.033363 2.245119 0.1652318 2.214957 -0.6294152 2.37905 2.32595 1.523955 2.45209 2.388314 2.275752 2.418443 3.243002 1.972456 -8.556016 -2.749021 1 352
4.300826 -0.7620419 0.9313141 -0.3936033 2.430485 -0.3451149 -1.907053 2.796576 -3.647332 0.7191463 -3.40278 2.133237 -3.413172 -2.024679 -0.9207659 0.4353808 0.5849033 -3.297986 2.40158 -3.802676 -1.128604 -2.04189 3.01683 -3.964558 2.066883 -2.990514 -1.075242 2.052042 0.1028635 2.170877 -0.2702633 2.548975 2.526737 1.451847 2.678177 2.391293 2.48465 2.664288 3.498022 2.020446 -8.69523 -4.323906 1 356
4.311659 -0.7963522 1.108682 -0.4392264 2.611542 -0.4367151 -1.871631 2.735574 -3.599527 0.4786158 -3.435191 2.03958 -3.480008 -2.111779 -1.040554 0.5540307 0.4207537 -3.2689 2.214811 -3.808399 -1.272597 -2.034064 2.807884 -3.769914 1.827357 -2.688325 -1.04166 1.872748 0.1111858 2.094544 -0.05852413 2.583894 2.590462 1.454766 2.759123 2.439335 2.597887 2.814576 3.581616 2.063431 -8.698824 -4.221788 1 360
3.809654 -0.9193951 1.531713 -0.5979868 2.722739 -0.5654851 -2.003139 2.756056 -3.43856 0.2701342 -3.382462 1.936534 -3.456651 -2.08239 -1.182405 0.7750803 0.1979206 -3.203679 2.097691 -4.032351 -1.360792 -1.849377 2.640331 -3.535426 1.663934 -2.470196 -0.9538531 1.763436 0.2514911 2.0103 0.09052686 2.644057 2.665354 1.532941 2.831427 2.521056 2.722413 2.852668 3.646242 2.217162 -8.456326 -4.660321 1 364
3.066701 -0.9798777 1.913007 -0.6928371 2.759823 -0.5744097 -2.028124 2.962396 -3.221126 0.1927343 -3.356753 2.086916 -3.423683 -2.078101 -1.431782 0.9028769 -0.0256394 -3.193835 2.32827 -4.3767 -1.414053 -1.669762 2.526251 -3.376648 1.889745 -2.321804 -0.9409106 1.706767 0.3678572 2.054097 0.2321084 2.832107 2.74616 1.557697 2.903923 2.621176 2.821313 2.880588 3.692562 2.367585 -8.364396 -5.942204 1 368
2.681724 -0.8694174 2.067065 -0.5996312 2.759569 -0.3567974 -1.909959 3.461947 -3.019696 0.3197169 -3.323659 2.495762 -3.373768 -2.210063 -1.749198 0.7768061 -0.2053207 -3.339704 2.709445 -4.716854 -1.530948 -1.7511 2.41771 -3.398581 2.371744 -2.372591 -1.133429 1.577163 0.2720998 2.201122 0.2676044 2.959486 2.690976 1.400706 2.857429 2.628901 2.763203 2.927091 3.619755 2.292411 -8.804016 -5.854613 1 372
2.984935 -0.6488143 1.819496 -0.3679175 2.658569 -0.09357535 -1.848327 3.793379 -2.792338 0.2563437 -3.191036 2.598236 -3.234895 -2.430621 -2.126811 0.4218602 -0.4506095 -3.591026 2.580979 -4.650797 -1.77761 -2.05902 2.194695 -3.446827 2.570191 -2.456093 -1.458698 1.264348 0.02420629 2.242652 0.218185 2.774645 2.571981 1.09062 2.7419 2.504694 2.622718 2.90334 3.482933 1.963739 -9.212747 -2.446842 1 376
3.649772 -0.4637527 1.105027 -0.1351047 2.410198 -0.03044202 -1.945409 3.49148 -2.46542 -0.2599174 -2.984653 2.146776 -3.005562 -2.64494 -2.570726 -0.01565424 -0.895957 -3.795138 1.830206 -3.825362 -2.110364 -2.313519 1.860586 -3.256381 2.307664 -2.3152 -1.757024 0.8470197 -0.1537448 2.045662 0.2337148 2.339897 2.589367 0.7824272 2.71886 2.367027 2.586277 2.710934 3.409003 1.605816 -8.874619 2.781152 1 380
4.15658 -0.3864574 0.3061117 -0.007129279 2.048709 -0.1879308 -2.182084 2.846097 -2.007427 -0.8259706 -2.691955 1.678145 -2.70709 -2.818894 -3.033929 -0.4134372 -1.441768 -3.862839 1.156936 -2.451781 -2.412796 -2.359865 1.57538 -2.801174 1.92059 -1.913725 -1.944655 0.5253475 -0.152248 1.701626 0.4040221 1.962773 2.778062 0.5622727 2.828735 2.251531 2.711759 2.395761 3.441919 1.412845 -7.970359 5.908282 1 384
4.221698 -0.4181623 -0.1192475 -0.03415545 1.643821 -0.5548931 -2.508444 2.414384 -1.494171 -1.138712 -2.330226 1.669097 -2.383214 -2.954853 -3.486213 -0.7830172 -1.851188 -3.836238 1.145442 -1.26461 -2.567586 -2.285659 1.483041 -2.294371 1.845182 -1.328085 -1.990653 0.4278529 -0.02602869 1.509891 0.739245 1.954583 3.074214 0.4410876 3.044937 2.209362 2.958531 2.223532 3.587421 1.38517 -7.128744 4.80005 1 388
3.892033 -0.6002458 -0.1112937 -0.2557738 1.279953 -1.096243 -2.855975 2.403697 -1.113907 -1.22933 -2.170225 2.024016 -2.247277 -3.025364 -3.846563 -1.141046 -1.949494 -3.813732 1.733102 -1.115307 -2.511353 -2.216392 1.653992 -1.977329 2.24708 -0.7323546 -1.895085 0.5361781 0.1398699 1.710473 1.171159 2.400701 3.448136 0.4579934 3.370322 2.40079 3.286977 2.411799 3.853718 1.411617 -6.753428 0.8241426 1 392
3.437601 -0.9204855 0.001569016 -0.6158981 0.955233 -1.741916 -3.240565 2.602187 -0.9488587 -1.114751 -2.336616 2.354106 -2.396136 -3.021278 -4.016308 -1.457357 -1.801659 -3.853138 2.387357 -1.923485 -2.30535 -2.138187 1.993658 -1.89021 2.786879 -0.2670049 -1.688403 0.7324395 0.3178621 2.169876 1.566848 2.99818 3.845043 0.6282545 3.757038 2.78315 3.633518 2.7993 4.188632 1.448461 -6.787893 -2.921706 1 396
3.112234 -1.260713 -0.1132756 -0.9719844 0.5841072 -2.465194 -3.675216 2.634547 -0.9520779 -0.9422247 -2.484509 2.397946 -2.517723 -2.985864 -4.086912 -1.745888 -1.689064 -3.907263 2.63482 -2.522081 -2.091647 -1.958283 2.234043 -1.86554 2.980871 0.02478464 -1.39305 0.9105554 0.5454216 2.533681 1.819569 3.373511 4.170519 0.8891938 4.093597 3.129481 3.921874 3.053962 4.47496 1.595417 -6.829664 -4.657025 1 400
2.831091 -1.616707 -0.4929719 -1.32201 0.1556497 -3.20597 -4.063163 2.25179 -1.054523 -1.035128 -2.323112 2.231119 -2.339947 -2.996962 -4.266736 -2.046678 -1.792652 -3.943916 2.43461 -2.235021 -1.95175 -1.709759 2.225871 -1.774962 2.771665 0.1294168 -1.03421 1.045891 0.8209274 2.663584 1.916945 3.466768 4.401519 1.178229 4.324662 3.368771 4.154357 3.125896 4.668001 1.895164 -6.579681 -4.276065 1 404
2.066191 -2.049245 -0.9474333 -1.73288 -0.2021646 -3.836969 -4.219273 1.670929 -1.174197 -1.313848 -2.015073 2.124693 -2.029121 -3.128985 -4.552782 -2.372156 -1.948803 -4.011219 2.245145 -1.459798 -1.837775 -1.544783 2.165715 -1.586825 2.597638 0.2242027 -0.7045668 1.243564 1.068271 2.764275 1.998973 3.565967 4.617502 1.464637 4.50708 3.628509 4.391108 3.21594 4.860271 2.197762 -6.264455 -3.686088 1 408
0.6167974 -2.505186 -1.227437 -2.174597 -0.4209858 -4.221436 -4.022635 1.407996 -1.298217 -1.283379 -1.86547 2.232486 -1.908152 -3.364032 -4.759023 -2.697957 -1.850549 -4.110956 2.652061 -0.8344662 -1.663347 -1.512675 2.349563 -1.300849 2.933372 0.6076931 -0.4698626 1.62584 1.283062 3.127464 2.312249 4.063178 4.916241 1.728968 4.770374 4.067106 4.700926 3.465537 5.133073 2.37378 -6.336876 -6.53968 1 412
-0.6543726 -2.907619 -1.216934 -2.579975 -0.5779736 -4.294415 -3.671611 1.567881 -1.48288 -0.8020707 -1.95336 2.532193 -2.038288 -3.584347 -4.799982 -2.937795 -1.480544 -4.218895 3.545895 -0.7984688 -1.437626 -1.504177 2.730911 -1.02136 3.550331 1.188886 -0.2857875 2.121391 1.499454 3.715985 2.834725 4.895071 5.226193 1.966808 5.089144 4.675778 5.029091 3.81858 5.396771 2.448046 -6.829516 -12.75499 1 416
-0.5919401 -3.201267 -0.9854053 -2.873852 -0.663234 -4.029803 -3.474979 1.88369 -1.77152 -0.2690351 -2.204924 2.890748 -2.288203 -3.696838 -4.708563 -3.009532 -1.133703 -4.366369 4.187435 -1.450282 -1.248554 -1.418202 3.01611 -0.9638605 3.842489 1.397162 -0.1655357 2.511444 1.635149 4.133776 3.129663 5.4682 5.291528 2.122477 5.2041 5.199113 5.148209 4.042947 5.450687 2.481167 -7.488727 -17.03172 1 420
0.7654314 -3.290333 -0.7200553 -2.961703 -0.610307 -3.43525 -3.477572 2.171559 -2.170185 -0.08936721 -2.546099 2.9537 -2.598732 -3.750085 -4.554846 -3.005495 -1.035178 -4.584832 4.2234 -2.305706 -1.158536 -1.311452 3.122999 -1.17669 3.905856 1.020386 -0.1846764 2.660001 1.604567 4.211752 2.987157 5.500288 5.062433 2.131623 5.034889 5.435902 5.001139 4.01345 5.269592 2.519937 -8.175518 -16.45343 1 424
2.113086 -3.171062 -0.6859912 -2.844405 -0.5346408 -2.753248 -3.479556 2.244763 -2.567186 -0.2058765 -2.749362 2.557744 -2.816336 -3.858642 -4.409691 -3.096507 -1.082797 -4.803727 3.967795 -2.582998 -1.13333 -1.318557 3.19526 -1.379627 4.096902 0.5928093 -0.2883472 2.66565 1.456891 4.201144 2.738508 5.343915 4.787325 2.065659 4.793217 5.474717 4.785243 3.923332 5.045953 2.551082 -8.696707 -14.14239 1 428
2.482764 -3.06859 -0.9474539 -2.73094 -0.5734832 -2.415783 -3.311173 1.911335 -2.833932 -0.3298836 -2.560894 2.050521 -2.668338 -4.00066 -4.27972 -3.239748 -1.053958 -4.879406 3.715167 -2.0007 -1.083867 -1.44993 3.245205 -1.34625 4.175787 0.5321903 -0.354597 2.696179 1.296976 4.25385 2.710892 5.283504 4.635993 2.029248 4.626564 5.446795 4.648062 3.980059 4.910563 2.494764 -8.75098 -13.24611 1 432
2.045709 -3.192574 -1.252809 -2.832777 -0.673296 -2.631832 -3.088583 1.278511 -2.988435 -0.3538753 -2.066822 1.741832 -2.184021 -4.047921 -4.125876 -3.234219 -0.935307 -4.74608 3.498264 -0.9386652 -0.9894934 -1.560169 3.171107 -1.163683 3.895978 0.6430672 -0.3305425 2.781521 1.218754 4.280198 2.89265 5.298384 4.613372 2.076852 4.556684 5.410955 4.626505 4.149602 4.877858 2.409745 -8.307611 -13.82286 1 436
1.33833 -3.440995 -1.426409 -3.061474 -0.7321783 -3.202669 -3.022857 0.6680725 -3.071571 -0.3532122 -1.614829 1.685555 -1.727996 -3.977565 -3.960721 -2.997624 -0.8847301 -4.461319 3.390488 -0.06445911 -0.9269866 -1.533218 3.031042 -1.005396 3.507525 0.6133081 -0.2213971 2.892905 1.267485 4.254568 3.073207 5.381238 4.674343 2.26173 4.576754 5.47493 4.687689 4.29817 4.914623 2.525971 -7.687394 -15.14294 1 440
0.6729631 -3.550833 -1.404335 -3.165264 -0.7179912 -3.605247 -3.060117 0.2653263 -3.069691 -0.4772953 -1.441295 1.811854 -1.552838 -3.858241 -3.83391 -2.615388 -0.9611897 -4.139235 3.428865 -0.04533573 -0.9485461 -1.421772 2.943216 -0.9873093 3.296705 0.4430728 -0.09740973 3.000467 1.382557 4.247896 3.101251 5.5393 4.722082 2.515246 4.615784 5.68062 4.720737 4.373655 4.947693 2.920275 -7.201914 -16.47444 1 444
-0.02221428 -3.431819 -1.154152 -3.068479 -0.6499093 -3.436851 -2.953672 -0.02949802 -2.937962 -0.8705873 -1.47549 1.544749 -1.574631 -3.731714 -3.759985 -2.223776 -1.101985 -3.888702 3.164929 -0.9242783 -1.038608 -1.340611 2.77599 -1.138773 3.149441 0.3371202 -0.02109775 3.005752 1.445039 4.274502 3.000793 5.646214 4.695166 2.63887 4.592619 5.92305 4.635483 4.472715 4.930738 3.351576 -6.768669 -16.04122 1 448
-0.9373811 -3.172189 -0.9411692 -2.844923 -0.5479395 -2.893008 -2.555789 -0.3496951 -2.663131 -1.554786 -1.586401 0.169543 -1.636285 -3.615111 -3.695968 -1.903677 -1.308995 -3.759754 1.860873 -1.975829 -1.205596 -1.372955 2.200586 -1.368702 2.667598 0.325674 -0.004197077 2.754485 1.351853 4.170314 2.817843 5.366017 4.574363 2.496725 4.467577 5.992655 4.405007 4.63667 4.816638 3.508012 -6.181967 -10.50693 1 452
-1.534718 -2.819418 -0.9585741 -2.501387 -0.343119 -2.253921 -1.929059 -0.5185085 -2.413031 -2.180738 -1.775192 -1.640453 -1.728697 -3.478859 -3.522552 -1.578847 -1.509642 -3.704762 -0.08718585 -2.651947 -1.409286 -1.509619 1.304163 -1.579904 1.769027 0.2200843 -0.1037747 2.266524 1.096854 3.725453 2.560181 4.591288 4.319222 2.148872 4.218679 5.704008 4.056471 4.680851 4.562424 3.322471 -5.676304 -1.136983 1 456
-1.037451 -2.45135 -1.047866 -2.10485 -0.02081034 -1.647755 -1.304914 -0.4753909 -2.392543 -2.328484 -1.981647 -2.598145 -1.864837 -3.229822 -3.157217 -1.108428 -1.522459 -3.613135 -1.392766 -3.03351 -1.512642 -1.554865 0.6623037 -1.731449 0.8485612 -0.08195026 -0.2785226 1.803469 0.8671474 3.030522 2.31012 3.740804 4.013577 1.811034 3.916744 5.140831 3.722601 4.448281 4.255727 3.056844 -5.394183 5.238506 1 460
0.1413773 -2.28903 -1.056864 -1.913012 0.2804591 -1.479419 -0.9323828 -0.5739931 -2.564118 -2.08851 -2.069969 -2.69937 -1.975719 -2.821869 -2.681525 -0.5360547 -1.34998 -3.397658 -1.712546 -3.209537 -1.442913 -1.335483 0.5019183 -1.753256 0.2456391 -0.4552057 -0.3302048 1.543989 0.8771644 2.414968 2.199226 3.202976 3.843851 1.634034 3.725577 4.550429 3.565899 4.059285 4.063216 3.014318 -4.975478 5.779837 1 464
0.966197 -2.328562 -0.9358615 -1.949241 0.5103194 -1.876469 -0.7963642 -0.8415974 -2.777353 -1.704828 -2.031693 -2.325442 -2.004066 -2.354438 -2.24057 -0.0334107 -1.080477 -3.062704 -1.303492 -3.063514 -1.22921 -0.9622003 0.5893936 -1.601018 0.07442376 -0.6615403 -0.2232819 1.484926 1.080724 2.100026 2.263803 3.093462 3.83377 1.597323 3.704738 4.066953 3.590166 3.794811 4.04331 3.154515 -4.432502 1.87093 1 468
1.024341 -2.290729 -0.8306393 -1.914853 0.6924376 -2.332919 -0.6755911 -1.011906 -2.941707 -1.370517 -1.967842 -1.760496 -1.979941 -1.995731 -1.925785 0.2910666 -0.780003 -2.731373 -0.5553065 -2.71713 -0.9819548 -0.7135047 0.7038078 -1.376353 0.3050645 -0.6529471 -0.1138809 1.537206 1.255686 2.048874 2.389592 3.245454 3.847598 1.565479 3.731419 3.696941 3.643102 3.734983 4.083747 3.202088 -4.084954 -3.292754 1 472
0.4394782 -2.109775 -0.8029079 -1.742327 0.7979143 -2.439451 -0.4854468 -1.171418 -3.003586 -1.444081 -1.892097 -1.74562 -1.91107 -1.821201 -1.761742 0.4523978 -0.6069065 -2.50754 -0.2309915 -2.344223 -0.8471487 -0.6631127 0.724635 -1.160155 0.7034451 -0.5657635 -0.0971257 1.548956 1.327287 2.069808 2.461272 3.276427 3.795677 1.431481 3.691198 3.384167 3.620006 3.671957 4.050086 3.067314 -3.79153 -5.368294 1 476
-0.4579535 -1.967225 -0.6208602 -1.634555 0.8533457 -2.266634 -0.2474306 -1.409897 -2.992534 -1.836489 -1.778496 -2.310605 -1.796782 -1.749328 -1.694503 0.5890614 -0.60776 -2.3201 -0.4121686 -1.847466 -0.8152153 -0.5594923 0.7318161 -0.8815503 0.9585013 -0.4488772 -0.1506345 1.489706 1.420017 2.039554 2.514887 3.120409 3.694978 1.273883 3.609812 3.104131 3.553188 3.452704 3.942836 2.909239 -3.391593 -5.059866 1 480
-1.3039 -1.928482 -0.364031 -1.625542 0.9058338 -2.084468 0.002311576 -1.585676 -2.950179 -1.970567 -1.746664 -2.637581 -1.767202 -1.642478 -1.666706 0.7876852 -0.6193508 -2.090897 -0.5241404 -1.357924 -0.7621904 -0.2476848 0.8827795 -0.5513537 0.8923485 -0.3527111 -0.1873925 1.480895 1.59975 1.944144 2.597517 2.975868 3.607089 1.214505 3.539753 2.90298 3.497256 3.159372 3.828316 2.858883 -2.999497 -5.7106 1 484
-1.601903 -1.899856 -0.2354469 -1.595706 0.9858996 -1.968369 0.1696451 -1.557017 -2.870348 -1.74354 -1.871729 -2.597887 -1.887679 -1.489347 -1.668206 0.9382422 -0.5332305 -1.909945 -0.5117101 -1.285667 -0.6847067 0.05385747 1.086494 -0.3324982 0.65764 -0.3391498 -0.2114738 1.521108 1.714149 1.845813 2.610283 2.833806 3.486121 1.164478 3.413857 2.767664 3.388104 2.892306 3.677897 2.7782 -2.779058 -6.411006 1 488
-0.7077478 -1.828731 -0.1075846 -1.533298 1.12408 -1.784438 0.2744925 -1.327736 -2.802131 -1.523181 -1.967689 -2.676008 -1.984258 -1.398564 -1.606663 0.9111362 -0.392639 -1.840355 -0.6459827 -1.552361 -0.6614233 0.09826172 1.130963 -0.2995173 0.5617858 -0.3119246 -0.3432595 1.451757 1.609302 1.819015 2.460504 2.560784 3.194356 0.9354601 3.130395 2.572005 3.106773 2.578133 3.402729 2.406084 -2.860226 -5.172293 1 492
1.044838 -1.721143 -0.004650376 -1.458426 1.234937 -1.507517 0.4069623 -1.157399 -2.794074 -1.509256 -1.904676 -2.876342 -1.950157 -1.356936 -1.385565 0.7799061 -0.2713425 -1.769045 -0.8794588 -1.758702 -0.6675642 0.008146871 1.026028 -0.3580355 0.5691431 -0.1881256 -0.5190535 1.289582 1.410375 1.791138 2.233377 2.185082 2.800813 0.589061 2.773129 2.280547 2.723943 2.164703 3.053807 1.833008 -3.00733 -3.153716 1 496
2.104021 -1.593092 -0.06352468 -1.351719 1.20672 -1.228266 0.492522 -1.192072 -2.78475 -1.648972 -1.889199 -2.822257 -1.964807 -1.205181 -1.123046 0.7253729 -0.2175876 -1.588754 -1.000029 -1.868104 -0.605301 0.1177555 0.9603958 -0.3807118 0.4452057 -0.09850077 -0.5245227 1.245507 1.356727 1.661319 2.045876 1.882228 2.505264 0.3742259 2.5109 2.080627 2.437828 1.792968 2.761606 1.435531 -2.842798 -2.149377 1 500
1.778578 -1.499386 -0.09227259 -1.263427 1.081427 -1.045397 0.3957784 -1.279189 -2.696737 -1.803923 -2.07611 -2.438851 -2.125652 -0.8935158 -0.9969481 0.8157345 -0.2233901 -1.322677 -0.982317 -1.935626 -0.4312849 0.5171154 0.9555497 -0.2994517 0.1512535 -0.22521 -0.3236575 1.351601 1.481236 1.453496 1.900694 1.708429 2.330724 0.3216969 2.361568 2.051281 2.303363 1.550559 2.546315 1.306255 -2.354687 -2.052865 1 504
1.119696 -1.529257 0.1039261 -1.303129 0.9524656 -1.011816 0.101223 -1.322661 -2.537299 -1.86703 -2.248219 -2.011709 -2.209605 -0.5486227 -1.006678 0.9433439 -0.2054988 -1.06995 -1.03286 -1.905744 -0.1836495 0.9512052 0.8622942 -0.1445671 -0.259796 -0.5537793 -0.07781371 1.455488 1.634522 1.178517 1.769799 1.455735 2.163945 0.2726291 2.198618 1.939374 2.207293 1.324478 2.336896 1.149863 -1.734649 -1.356954 1 508
1.332532 -1.657843 0.2997259 -1.43973 0.8364095 -1.050996 -0.2188398 -1.291984 -2.408287 -1.817153 -2.212041 -1.73788 -2.095172 -0.3231833 -0.9923639 0.9383767 -0.0794255 -0.9264834 -1.274274 -1.793446 0.06537888 1.156339 0.6780407 -0.04613791 -0.7187396 -0.914827 0.05519316 1.516454 1.698294 0.8541233 1.615707 0.9682447 1.889185 0.1826055 1.902758 1.594924 1.992745 1.030811 2.031256 0.6989402 -1.297963 0.9586875 1 512
2.229353 -1.784036 0.2220851 -1.555879 0.7027683 -1.205176 -0.3582266 -1.157042 -2.448721 -1.589143 -2.055197 -1.556848 -1.922554 -0.2396267 -0.7995646 0.7741321 0.211045 -0.8581438 -1.442428 -1.591437 0.3204552 1.211511 0.6360697 -0.04300699 -1.034671 -1.213733 0.1220913 1.67764 1.720436 0.6454903 1.425417 0.5086007 1.544213 0.1728179 1.555431 1.26886 1.659521 0.7687574 1.668484 0.1240157 -1.318189 3.004375 1 516
2.860678 -1.950404 0.08753972 -1.705405 0.5760959 -1.512944 -0.3244599 -1.028026 -2.636907 -1.115699 -1.890603 -1.409913 -1.767552 -0.1814904 -0.4600087 0.6051965 0.6214432 -0.7503912 -1.1719 -1.289709 0.6187322 1.378414 0.9236673 -0.005116512 -0.9829189 -1.436499 0.2621564 2.048324 1.818672 0.6813387 1.244825 0.4670843 1.301406 0.3665144 1.331435 1.23294 1.369181 0.6533417 1.418356 -0.148769 -1.550124 1.451519 1 520
3.181751 -2.122772 0.1720127 -1.875067 0.5418288 -1.691161 -0.2502808 -0.9418472 -2.812751 -0.5921596 -1.797372 -1.274534 -1.672577 -0.101042 -0.1573117 0.5277178 0.9678093 -0.6687132 -0.4675686 -0.98762 0.8787031 1.628651 1.448485 0.0601416 -0.492215 -1.522124 0.4253441 2.48153 1.945158 0.8993953 1.090078 0.8278526 1.193033 0.6687813 1.226963 1.427372 1.197279 0.6421689 1.289073 -0.05456525 -1.660105 -3.579332 1 524
3.331854 -2.132927 0.2433679 -1.893782 0.5586028 -1.645395 -0.2369987 -0.7564194 -2.856048 -0.258971 -1.846146 -1.025994 -1.73075 -0.1105122 -0.00946421 0.3889996 1.16566 -0.8222098 0.2791955 -0.9512129 0.9881588 1.67518 1.978885 -0.05560693 0.2133421 -1.434844 0.4851082 2.72493 1.925963 1.176076 0.9652391 1.187182 1.152733 0.8308068 1.16255 1.588629 1.127286 0.6308641 1.205373 0.09264903 -1.799005 -7.512271 1 528
3.068727 -2.05321 0.03433501 -1.819681 0.4751652 -1.637964 -0.3264546 -0.4968536 -2.7165 -0.1464626 -2.011372 -0.6862594 -1.918665 -0.2838971 0.004930204 0.02879065 1.289401 -1.226348 0.6200765 -1.407431 0.9560289 1.433375 2.295027 -0.3744711 0.6990606 -1.198332 0.465943 2.710432 1.732294 1.390219 0.9116419 1.231211 1.215397 0.7779553 1.172098 1.562103 1.178589 0.614328 1.214224 0.08481052 -2.0799 -6.782236 1 532
2.738378 -2.058745 -0.2552165 -1.831192 0.2901945 -1.723817 -0.4961929 -0.3368673 -2.473279 -0.2178393 -2.163205 -0.5466707 -2.072927 -0.5562313 -0.05124881 -0.4300627 1.346048 -1.674205 0.4797448 -2.072221 0.8569021 1.10336 2.33979 -0.7192861 0.8170652 -0.8877532 0.444015 2.557298 1.493405 1.479118 0.9226912 1.05956 1.398989 0.6621461 1.288847 1.45418 1.328806 0.6396671 1.356168 -0.01159486 -2.323327 -3.154471 1 536
2.650145 -2.15952 -0.306065 -1.952195 0.1228122 -1.755236 -0.7140984 -0.3522746 -2.227518 -0.3741874 -2.089771 -0.6245125 -1.990078 -0.8496635 -0.1212711 -0.7659203 1.258175 -1.99393 0.2433834 -2.340218 0.708086 0.8683754 2.302566 -0.9954046 0.7944866 -0.620576 0.407358 2.408055 1.316791 1.49059 0.914849 0.9736893 1.605975 0.6369644 1.433984 1.481149 1.478405 0.6745258 1.554239 -0.006743084 -2.395149 -0.6903061 1 540
2.741893 -2.342306 -0.1308234 -2.167085 -0.004622936 -1.751958 -0.9446241 -0.5271041 -2.000986 -0.5318307 -1.808758 -0.5710567 -1.70498 -1.095889 -0.1962094 -0.921504 1.024645 -2.142885 0.2033513 -2.140427 0.5262936 0.7641332 2.299459 -1.171303 0.7040203 -0.4346532 0.3504433 2.334946 1.238615 1.509381 0.8722026 1.07963 1.77781 0.7180298 1.555169 1.684092 1.598444 0.6884619 1.731343 0.1925254 -2.258162 -0.7477108 1 544
2.985504 -2.612245 0.01372923 -2.467335 -0.1748921 -1.856344 -1.108916 -0.8140255 -1.821921 -0.8175541 -1.627271 -0.3655683 -1.515618 -1.231375 -0.3570565 -0.9896293 0.7590883 -2.186978 0.2096816 -1.993012 0.3923429 0.7091855 2.270142 -1.262536 0.5292656 -0.2887862 0.3644013 2.354503 1.223737 1.638712 0.8937343 1.258364 1.921412 0.8339134 1.671974 1.927691 1.717324 0.7726668 1.871692 0.4680215 -1.964126 -1.331828 1 548
3.091952 -2.931315 -0.02432515 -2.813414 -0.4201675 -2.130429 -1.096865 -1.098753 -1.691378 -1.273084 -1.604737 -0.2410299 -1.494565 -1.285542 -0.6020373 -1.074672 0.5571343 -2.225506 0.1671002 -2.118022 0.3426908 0.5976977 2.194931 -1.339489 0.5156474 -0.110311 0.4981465 2.438552 1.189768 1.95306 1.048734 1.4367 2.017058 0.9383869 1.765876 2.111002 1.799945 0.9884392 1.964021 0.6287803 -1.68194 -0.987945 1 552
3.089715 -3.187247 -0.1561171 -3.098118 -0.6364828 -2.359354 -0.8705299 -1.113143 -1.592965 -1.591231 -1.547051 -0.06016671 -1.456141 -1.350332 -0.780203 -1.192465 0.3839705 -2.336118 0.28464 -2.224075 0.2984436 0.405722 2.067961 -1.447602 0.8077608 0.06415887 0.6198298 2.476405 1.068443 2.326627 1.24044 1.59119 2.02427 0.976054 1.781529 2.163592 1.786961 1.173266 1.960429 0.6068898 -1.66758 -0.5313134 1 556
3.394661 -3.254766 -0.2287968 -3.186799 -0.7023166 -2.220695 -0.5691046 -0.7982264 -1.501124 -1.554702 -1.399504 0.2897695 -1.322361 -1.46527 -0.8174863 -1.287911 0.176559 -2.559955 0.5098424 -2.061449 0.1535062 0.1741981 1.865761 -1.593279 1.154666 0.03524273 0.5761884 2.352277 0.8543501 2.48876 1.244818 1.564447 1.873623 0.8659006 1.642292 2.051054 1.631682 1.07145 1.786113 0.4674196 -1.94749 0.2467732 1 560
3.709007 -3.13371 -0.2924662 -3.059839 -0.6345014 -1.869694 -0.3279335 -0.5265971 -1.329894 -1.261845 -1.272192 0.3856349 -1.188269 -1.553545 -0.7603248 -1.284054 0.008962133 -2.75415 0.5004687 -1.633445 -0.03736851 -0.0006263148 1.650845 -1.6861 1.318362 -0.1870296 0.4455685 2.113753 0.646038 2.386532 1.008034 1.298568 1.578359 0.6458051 1.347527 1.858973 1.346828 0.7037279 1.475624 0.3125439 -2.103196 2.155599 1 564
3.632873 -2.863797 -0.4980559 -2.758381 -0.5385031 -1.672009 -0.08603863 -0.4105419 -1.07655 -0.8133892 -1.306794 0.06334071 -1.227237 -1.535048 -0.6637139 -1.174595 0.04044726 -2.746922 0.3533037 -1.255746 -0.115642 -0.0713605 1.592986 -1.672392 1.466481 -0.3588758 0.3974997 1.912873 0.4970107 2.251401 0.7264206 1.014198 1.270225 0.4263625 1.028836 1.66227 1.030643 0.3649049 1.153913 0.12829 -2.002204 3.833586 1 568
3.614085 -2.466212 -0.7738987 -2.324459 -0.4659269 -1.590109 0.2211188 -0.1714213 -0.8858576 -0.2712722 -1.361169 -0.1418932 -1.323992 -1.50357 -0.6060825 -1.089284 0.2979804 -2.655984 0.5178587 -1.240124 -0.1054516 -0.1695149 1.799597 -1.664113 1.882147 -0.3928165 0.3658129 1.784071 0.3189083 2.24285 0.5219471 0.8693317 0.9818035 0.2217793 0.7500751 1.432716 0.7354971 0.1819572 0.8446448 -0.2230393 -2.104368 3.946433 1 572
4.135381 -2.078972 -0.9203202 -1.907146 -0.4163383 -1.465082 0.5094545 0.06875506 -0.7877417 0.1781189 -1.06031 -0.04813279 -1.065319 -1.587245 -0.6519117 -1.09234 0.5676153 -2.618463 0.9458961 -1.21929 -0.1692028 -0.3940564 2.103645 -1.64615 2.39671 -0.3153307 0.1860869 1.651899 0.1144292 2.258612 0.3863932 0.7940587 0.7093546 0.03114553 0.4993899 1.145229 0.4677012 0.0401516 0.5454073 -0.7086227 -2.387474 2.804033 1 576
5.172589 -1.922374 -0.8389159 -1.732914 -0.4063416 -1.31746 0.6313968 -0.06611798 -0.6608188 0.3714655 -0.4462564 -0.07471631 -0.4637704 -1.738714 -0.8133461 -1.060664 0.6128426 -2.55474 1.168391 -0.7987379 -0.3438426 -0.6019987 2.26589 -1.50405 2.582582 -0.1718028 -0.06385699 1.512117 0.004838943 2.153218 0.3232234 0.7111695 0.5518546 -0.06832266 0.3348664 0.8959904 0.3010193 -0.1226405 0.3410788 -1.059916 -2.284423 1.182231 1 580
6.421552 -2.009423 -0.5652236 -1.821153 -0.4995312 -1.219097 0.5028619 -0.4247146 -0.5572019 0.333202 0.08704385 -0.2862357 0.08760864 -1.879131 -1.141131 -0.9657581 0.4441147 -2.441157 1.096221 -0.4594273 -0.5032669 -0.6233926 2.311887 -1.334237 2.405991 -0.0967992 -0.1252043 1.478337 0.04292748 1.996388 0.3090676 0.6640122 0.554962 -0.03513167 0.3181708 0.8252469 0.3011702 -0.2482727 0.2971257 -1.094994 -1.91272 -0.234572 1 584
7.376085 -2.175952 -0.3008186 -1.999437 -0.7544016 -1.29243 0.1599311 -0.5978536 -0.584657 0.09578171 0.3462488 -0.4089774 0.3871279 -2.007231 -1.617259 -0.9763195 0.2376509 -2.369067 0.9664225 -0.6687531 -0.5312198 -0.5337102 2.341689 -1.219784 2.154876 -0.07623443 0.1030766 1.621861 0.2187386 1.943787 0.3675715 0.7189245 0.6918337 0.08906403 0.4517887 0.9282673 0.4613881 -0.2215296 0.4307427 -0.9141525 -1.790744 -1.05231 1 588
7.657109 -2.329804 -0.2490438 -2.157807 -1.086797 -1.619299 -0.2679107 -0.5395218 -0.6100964 -0.3173326 0.3356207 -0.4864473 0.400244 -2.110366 -2.027018 -1.159551 0.1460291 -2.354509 0.8302628 -1.059951 -0.467751 -0.5285346 2.295639 -1.040043 2.00103 0.08839881 0.3903638 1.819281 0.4683349 2.004832 0.5780877 0.8553907 0.9258918 0.2482074 0.6870969 1.085547 0.7179224 0.02130274 0.7034746 -0.7718184 -1.873204 -1.203312 1 592
7.416634 -2.348886 -0.3923512 -2.162087 -1.335636 -2.016976 -0.5680384 -0.4658288 -0.5159365 -0.7602457 0.1751693 -0.6901889 0.2544149 -2.181047 -2.216354 -1.376017 0.1751255 -2.349615 0.6771152 -1.06256 -0.4217615 -0.6027324 2.184677 -0.7237372 1.968868 0.3986494 0.4981902 1.888769 0.7001629 2.056283 0.8750319 0.9829493 1.145149 0.3697768 0.9143127 1.174456 0.9258236 0.3270398 0.9649376 -0.7737768 -1.896338 -1.213432 1 596
7.072259 -2.147483 -0.5824978 -1.933752 -1.462826 -2.312023 -0.6324887 -0.49754 -0.3495078 -1.102437 0.07576535 -0.8535098 0.1997788 -2.231527 -2.283104 -1.489494 0.1629244 -2.325827 0.5653667 -0.6708023 -0.4525529 -0.5781017 2.124969 -0.3633226 1.903167 0.6451796 0.4917191 1.780883 0.896257 1.92032 1.106037 0.9688017 1.283745 0.3657311 1.077199 1.080047 1.018018 0.4250791 1.10767 -0.7725651 -1.80167 -1.427988 1 600
6.927832 -1.805336 -0.7432089 -1.569837 -1.521205 -2.553457 -0.5972881 -0.5216513 -0.1664384 -1.256514 0.1444134 -0.7404644 0.3220429 -2.285745 -2.404048 -1.514124 5.278371e-05 -2.27582 0.4328609 -0.349596 -0.5828087 -0.4470574 2.081652 -0.09513657 1.550712 0.7377497 0.4798793 1.528147 1.066091 1.534891 1.218927 0.7180378 1.378287 0.1922642 1.206317 0.785285 1.071338 0.2299563 1.150456 -0.6610125 -1.734258 -0.9321371 1 604
7.209712 -1.45424 -0.8965931 -1.20213 -1.578634 -2.817719 -0.6229709 -0.4220432 0.01943471 -1.142424 0.3316831 -0.3733055 0.5397559 -2.360249 -2.606719 -1.542373 -0.1893736 -2.206748 0.3181731 -0.2669132 -0.7403818 -0.3631682 1.953609 0.0426091 1.034424 0.7723555 0.4673647 1.212619 1.18034 1.088766 1.271164 0.3682523 1.41207 -0.1037565 1.263783 0.4260055 1.107266 -0.06793538 1.13081 -0.5672236 -1.804345 0.1790791 1 608
7.77976 -1.272214 -1.024853 -1.009783 -1.751902 -3.235864 -0.7595881 -0.2649203 0.3373815 -0.871582 0.5916916 0.1331233 0.7916445 -2.416382 -2.777401 -1.654293 -0.2198173 -2.143358 0.4859414 -0.005691247 -0.8067163 -0.363677 1.778105 0.1697724 0.7950903 0.8822892 0.4750179 0.9655524 1.213417 0.8330283 1.386183 0.2243345 1.409508 -0.4054089 1.232566 0.1572023 1.115724 -0.2110382 1.111096 -0.6454911 -1.735923 -0.2925774 1 612
8.14395 -1.330135 -1.024826 -1.084304 -2.103653 -3.829333 -1.028128 -0.1341431 0.9168631 -0.6892015 0.8987356 0.6093491 1.056872 -2.447054 -2.896665 -1.881735 -0.1521962 -2.11677 0.9538556 0.7195868 -0.8051565 -0.3913127 1.645525 0.3994156 0.982172 1.139238 0.4800128 0.824724 1.193425 0.8123085 1.648433 0.3841695 1.481322 -0.6123818 1.235279 0.04141803 1.154694 -0.147865 1.149198 -0.8416076 -1.300559 -3.053397 1 616
8.258897 -1.516552 -0.8266237 -1.322362 -2.504919 -4.269112 -1.406054 -0.1048197 1.592924 -0.7101101 1.154668 0.848738 1.286979 -2.491898 -3.071548 -2.148164 -0.2355959 -2.116241 1.333548 1.568325 -0.8769055 -0.4044068 1.526652 0.6642951 1.280185 1.493552 0.4058478 0.7021105 1.171606 0.8254533 1.98348 0.5942492 1.629889 -0.7287249 1.335719 0.01364721 1.265104 -0.07059505 1.215997 -0.957092 -0.6649764 -5.725195 1 620
8.472956 -1.725901 -0.5807626 -1.592412 -2.768882 -4.303555 -1.730433 -0.2243535 2.059723 -0.8994598 1.309957 0.8724349 1.442035 -2.528087 -3.340104 -2.349287 -0.5375075 -2.107024 1.401422 2.074112 -1.070131 -0.3946171 1.359141 0.8301136 1.413243 1.839516 0.242267 0.5706568 1.14423 0.7269792 2.247461 0.6379434 1.79173 -0.8312047 1.480636 -0.01629611 1.439202 -0.1362719 1.276181 -0.9205992 -0.07244127 -6.502583 1 624
8.792539 -1.884889 -0.5807667 -1.788017 -2.837949 -4.073135 -1.788061 -0.3357772 2.20445 -1.12309 1.396517 0.9028276 1.50241 -2.515556 -3.591449 -2.504502 -0.8452008 -2.130189 1.392744 2.079392 -1.255331 -0.43755 1.196077 0.8424472 1.547623 2.134929 0.06784227 0.4913399 1.048238 0.6568928 2.378855 0.6139061 1.937788 -0.9728115 1.604186 -0.02046028 1.616191 -0.2890192 1.326186 -0.907851 0.2659541 -6.117762 1 628
9.035226 -1.937656 -0.8247741 -1.855841 -2.769407 -3.687418 -1.569777 -0.2983186 2.188172 -1.186053 1.442923 0.8873559 1.506944 -2.515279 -3.673097 -2.727891 -0.9833667 -2.276123 1.289243 1.711888 -1.351924 -0.6569955 1.04188 0.7100582 1.714239 2.373429 -0.0948521 0.3944823 0.8102709 0.6762758 2.361011 0.49891 1.952865 -1.214126 1.577407 -0.04053877 1.643779 -0.4357952 1.277776 -1.142283 0.269378 -4.122079 1 632
9.378449 -1.873401 -0.9429795 -1.810183 -2.63678 -2.960627 -1.289928 -0.1449094 2.160329 -0.9151188 1.506887 0.5580712 1.556748 -2.597125 -3.554644 -3.037403 -0.9720697 -2.521249 0.7823684 1.405754 -1.431209 -1.016361 0.8246794 0.5143155 1.518632 2.551245 -0.2973317 0.1735915 0.4749418 0.5647585 2.210467 0.1140126 1.721284 -1.538161 1.323135 -0.215038 1.434447 -0.5787125 1.063964 -1.57464 -0.01717099 0.08699452 1 636
10.16889 -1.712899 -0.6902297 -1.682747 -2.501469 -1.892071 -1.135652 0.1769233 2.092837 -0.3590355 1.614858 0.136714 1.649243 -2.700591 -3.312566 -3.309256 -0.8730869 -2.742474 0.2083572 1.409992 -1.502045 -1.279971 0.6338853 0.3322027 1.012835 2.610621 -0.4934488 -0.05999695 0.202169 0.2489536 1.97083 -0.3394515 1.356538 -1.767475 0.9895056 -0.4585259 1.110424 -0.7607887 0.7956341 -1.877502 -0.5652631 3.295101 1 640
11.09878 -1.50564 -0.3181075 -1.512208 -2.457813 -1.093081 -1.135829 0.6202543 2.028157 0.1385594 1.741625 0.1150579 1.742638 -2.735361 -3.057804 -3.461268 -0.7545971 -2.877088 0.1250996 1.485756 -1.473861 -1.306712 0.6318659 0.1551 0.6920447 2.498328 -0.5528551 -0.1395004 0.07138439 -0.0623832 1.663818 -0.5431911 1.097096 -1.805807 0.7750168 -0.5996976 0.8588019 -0.9566647 0.6173298 -1.829602 -1.096409 3.118733 1 644
11.56881 -1.331205 -0.2545599 -1.348052 -2.522797 -1.118125 -1.228647 0.9814178 2.046676 0.4698698 1.766182 0.4977324 1.767265 -2.678078 -2.88062 -3.541091 -0.6051773 -2.939046 0.4115894 1.446402 -1.269021 -1.223115 0.8039278 -0.03563254 0.6217129 2.260903 -0.4116773 -0.031249 0.01738821 -0.2085468 1.329917 -0.5534803 1.010301 -1.746137 0.6849768 -0.6818691 0.7272525 -1.041083 0.5557961 -1.575376 -1.322574 1.57896 1 648
11.92481 -1.319627 -0.4412785 -1.316707 -2.562473 -1.754245 -1.365674 1.29977 2.129403 0.8620569 1.497405 0.9889488 1.550152 -2.561005 -2.762939 -3.628945 -0.3229509 -2.997623 0.657944 1.195729 -0.8894783 -1.221865 0.9875761 -0.287138 0.54895 1.961531 -0.1280568 0.1909273 -0.08901171 -0.2447615 0.9935504 -0.6063734 0.9421412 -1.685361 0.5789724 -0.7948638 0.6085131 -0.9693511 0.5328183 -1.427184 -1.444223 1.369931 1 652
12.57348 -1.548157 -0.5113046 -1.537292 -2.559611 -2.552818 -1.566431 1.597321 2.259111 1.210058 1.049412 1.343635 1.149551 -2.440737 -2.652261 -3.704659 0.01201453 -3.087094 0.6305315 0.7478226 -0.4552686 -1.249172 1.016198 -0.5854631 0.2815218 1.721511 0.2165972 0.3980252 -0.2235283 -0.3064788 0.7040253 -0.7708521 0.8610539 -1.589936 0.4817284 -0.8860149 0.5070395 -0.8472121 0.5223053 -1.432663 -1.567292 2.791251 1 656
12.79815 -1.889407 -0.4154556 -1.904762 -2.658153 -3.290367 -1.881111 1.701417 2.343163 1.139983 0.7209825 1.472523 0.8237237 -2.322423 -2.549448 -3.698831 0.1801801 -3.122176 0.3667237 0.3939253 -0.09756158 -1.096379 0.8684226 -0.8027868 -0.1721595 1.62587 0.6004072 0.5540127 -0.1892661 -0.4127057 0.5771512 -0.89992 0.944145 -1.350964 0.5913333 -0.8479791 0.5931723 -0.7540402 0.6267633 -1.315098 -1.500707 4.249648 1 660
12.117 -2.113535 -0.2845424 -2.170933 -2.856497 -3.831741 -2.266674 1.693001 2.278494 0.6552829 0.5391722 1.674797 0.6222537 -2.18872 -2.498149 -3.639649 0.1474808 -3.065872 0.3343085 0.2199948 0.16222 -0.7900568 0.7481483 -0.9138469 -0.387603 1.64399 0.9768918 0.7627199 0.04096083 -0.4473293 0.6438448 -0.7982901 1.204366 -0.9814698 0.9174046 -0.6738777 0.8671986 -0.6817274 0.8854849 -0.9312725 -1.398022 3.784683 1 664
-0.9838211 -1.961435 -1.142 -3.371739 -1.912651 -2.125242 -3.588699 -0.9718267 -1.014367 -0.7318664 -0.9194608 -0.7790291 -0.8894743 0.3690836 -0.7458248 -2.492686 -0.5826042 -2.12071 -0.749971 -0.9782633 -0.05060278 1.13209 2.73823 0.09812648 2.851579 0.02916163 2.217984 1.573511 2.352244 2.863199 -1.525234 2.691844 1.594287 2.724407 3.362451 2.799577 2.713004 2.819322 3.630104 2.208963 -0.537071 -10.59477 2 -168
-0.8010512 -1.688353 -0.935862 -3.140352 -1.511775 -1.796562 -3.314313 -0.8900852 -1.001904 -0.1986162 -0.9061413 -0.2496046 -0.9046306 0.1156518 -0.4364629 -2.238056 -0.4508598 -2.206164 -0.2228799 -0.9703842 -0.2742535 0.6066104 2.712393 -0.1916462 2.793402 -0.2762527 1.771305 1.388705 1.768282 2.775495 -1.61676 2.587024 1.491656 2.623893 3.060378 2.705588 2.437562 2.756417 3.386871 2.201614 -0.8470203 -10.11279 2 -164
-0.5828868 -1.400539 -0.6873295 -2.63654 -1.065319 -1.293896 -3.101311 -0.8570902 -1.105143 0.2505387 -1.038427 0.2053847 -1.03306 -0.04548108 -0.06528035 -2.067429 -0.4301855 -2.309499 0.2204794 -1.044531 -0.5451818 0.01194206 2.625551 -0.4315502 2.694395 -0.5277951 1.252592 1.011852 1.272099 2.632232 -1.581269 2.434075 1.447262 2.473256 2.818514 2.573142 2.34165 2.597232 3.254034 2.066837 -1.006081 -9.327102 2 -160
-0.1897565 -1.055637 -0.2761219 -1.792274 -0.4624666 -0.6239292 -2.752389 -0.6306677 -1.151502 0.5128403 -1.126295 0.4943029 -1.11056 -0.1347283 0.360154 -1.854014 -0.2321487 -2.408933 0.4957314 -1.107489 -0.8727867 -0.5607425 2.355467 -0.6103888 2.405596 -0.7147958 0.6430869 0.4246104 0.8612845 2.319676 -1.445974 2.128558 1.396983 2.147658 2.520621 2.290724 2.284125 2.257017 3.051037 1.698933 -1.192358 -8.342461 2 -156
0.1294295 -0.7251126 0.2144177 -0.8929209 0.2621844 0.03428501 -2.099327 -0.3706164 -1.04097 0.4488142 -1.032942 0.4615964 -1.030535 -0.1061861 0.8300636 -1.493402 0.1318872 -2.386714 0.4538418 -1.081499 -1.138061 -0.9452503 1.921898 -0.7344345 1.925601 -0.8306156 0.05286157 -0.230369 0.5237489 1.89951 -1.268761 1.737642 1.340725 1.66694 2.155255 1.875515 2.18422 1.828605 2.789853 1.254773 -1.191073 -7.525078 2 -152
0.2812491 -0.4129594 0.7532834 -0.2595341 1.023587 0.5567265 -1.219555 -0.1769589 -0.7301067 0.2233365 -0.7211021 0.2593092 -0.7192446 0.08967542 1.305777 -0.999847 0.4350543 -2.194728 0.2281724 -0.8059803 -1.242266 -1.099469 1.392213 -0.8034902 1.360518 -0.8918976 -0.3909847 -0.8869188 0.2335268 1.417161 -1.270245 1.290063 1.159525 1.123244 1.711949 1.391007 1.913965 1.352484 2.392037 0.8297419 -0.8143862 -7.084204 2 -148
0.5064327 -0.03228312 1.367652 0.1136126 1.797693 0.9879205 -0.2094981 0.06017104 -0.1923036 0.1395796 -0.1995427 0.1718209 -0.1586228 0.4370903 1.772033 -0.4014385 0.5870181 -1.84635 0.1143338 -0.2251114 -1.177032 -1.072034 0.6933109 -0.7318987 0.63835 -0.8166745 -0.6432558 -1.549902 -0.04159458 0.7287945 -1.585849 0.6282834 0.7151947 0.4284115 1.121921 0.7427967 1.352324 0.6743139 1.717493 0.2280618 -0.1910675 -6.650255 2 -144
0.7922327 0.3602146 1.911048 0.4001282 2.484366 1.411208 0.8063683 0.3510396 0.3174842 0.2920592 0.3006487 0.2764435 0.380731 0.8398306 2.197431 0.2694542 0.6484581 -1.437098 0.2352638 0.3409647 -1.021389 -0.9880081 -0.06113343 -0.5473949 -0.1382947 -0.6218311 -0.7714281 -2.097032 -0.3040363 -0.05695542 -2.038888 -0.1145559 0.1431594 -0.3444769 0.4393358 0.01861178 0.656104 -0.1133226 0.9678257 -0.538114 0.3944178 -6.04088 2 -140
0.9451285 0.6580551 2.224946 0.6981907 2.927209 1.818385 1.568298 0.5416247 0.5144253 0.5428723 0.5356839 0.4648729 0.6328838 1.174678 2.460592 0.9029462 0.710947 -1.091215 0.4706707 0.585993 -0.8639353 -0.958639 -0.5973856 -0.4680994 -0.6631523 -0.5259726 -0.8565066 -2.452273 -0.5282683 -0.6156074 -2.475473 -0.6199546 -0.353947 -0.906078 -0.1610769 -0.5144249 0.08085721 -0.7008082 0.3697117 -1.156129 0.7777584 -5.097963 2 -136
1.002798 0.8755066 2.325091 1.058492 3.117933 2.136006 1.958523 0.5437152 0.5440633 0.6064735 0.6023565 0.4932126 0.6988184 1.406104 2.505226 1.380066 0.7969484 -0.7724894 0.5220872 0.6213713 -0.6940993 -0.8675829 -0.9375789 -0.4700829 -0.9732276 -0.5236338 -0.8317459 -2.694378 -0.6212178 -0.9554678 -2.925899 -0.9457132 -0.780566 -1.245142 -0.5491357 -0.8920883 -0.3324687 -1.068931 -0.1319943 -1.465935 1.123325 -3.638092 2 -132
1.135566 1.058643 2.345713 1.474516 3.158843 2.340168 2.136857 0.5046734 0.6214532 0.3706423 0.6634361 0.282522 0.7448334 1.607861 2.44396 1.627669 0.8122127 -0.4141411 0.294737 0.6396927 -0.4421545 -0.5564646 -1.28561 -0.3335472 -1.295468 -0.4116341 -0.5361221 -2.850888 -0.494939 -1.301343 -3.373216 -1.32356 -1.229946 -1.585407 -0.6974302 -1.297778 -0.6939785 -1.416903 -0.6514837 -1.651552 1.625958 -2.047449 2 -128
1.262067 1.212451 2.302788 1.804367 3.084331 2.395405 2.293207 0.5030172 0.7036952 0.03716813 0.7027732 0.0228868 0.7795013 1.825353 2.348225 1.630252 0.6462414 -0.1103439 0.02262843 0.6575955 -0.09882914 -0.1252595 -1.734185 -0.01790398 -1.705303 -0.117883 0.03985576 -2.872284 -0.177237 -1.735378 -3.642789 -1.809896 -1.600135 -2.010448 -0.5998947 -1.773841 -0.8979757 -1.850172 -1.039687 -1.879878 2.289281 -0.7639799 2 -124
1.263632 1.316372 2.087534 1.978459 2.921738 2.206326 2.474284 0.4694563 0.6598331 -0.1882652 0.6318337 -0.1666386 0.7140053 2.038299 2.220334 1.528865 0.369156 0.07493123 -0.1414452 0.5805441 0.262374 0.2372506 -2.199775 0.3800369 -2.133559 0.309513 0.7205891 -2.717957 0.2475814 -2.1732 -3.616144 -2.300974 -1.758829 -2.394071 -0.3101805 -2.240674 -0.8304126 -2.288397 -1.149267 -2.047289 2.889391 0.07391056 2 -120
1.260472 1.30953 1.738188 2.058439 2.736774 1.858665 2.582216 0.4887988 0.3836323 -0.3086488 0.372229 -0.3232243 0.4315262 2.236995 2.112263 1.504925 0.1861976 0.1839427 -0.2770405 0.2680081 0.567421 0.4776764 -2.428538 0.659281 -2.356287 0.6353822 1.341139 -2.361386 0.6741478 -2.40012 -3.443931 -2.546047 -1.822775 -2.531702 0.0235183 -2.467314 -0.7370735 -2.482952 -1.195099 -1.998735 3.114098 0.4753658 2 -116
1.290588 1.145265 1.399135 2.053632 2.525626 1.496352 2.440687 0.4942947 0.0118312 -0.427512 0.04050846 -0.4829643 0.05399587 2.436413 2.019479 1.558172 0.09969132 0.2196913 -0.4629034 -0.1445895 0.7971269 0.6441245 -2.366307 0.6887195 -2.310341 0.6779486 1.833449 -1.892872 0.9862995 -2.368065 -3.211888 -2.48957 -1.850168 -2.449049 0.319869 -2.396461 -0.7001445 -2.398348 -1.277533 -1.805842 3.153421 0.647064 2 -112
1.078041 0.8116501 1.077871 1.970321 2.242903 1.088232 1.997483 0.1770657 -0.05911103 -0.5867277 -0.01352713 -0.6478369 -0.03153103 2.580934 1.83857 1.518477 -0.06928459 0.170296 -0.6614925 -0.2089537 0.9015678 0.8334389 -2.294049 0.6426365 -2.249769 0.6270106 2.204455 -1.511108 1.16915 -2.316868 -2.761151 -2.401951 -1.723113 -2.381756 0.6364599 -2.338372 -0.5221438 -2.328266 -1.235094 -1.565468 3.352851 0.9875284 2 -108
0.62296 0.450763 0.7760217 1.778027 1.936598 0.7306046 1.468858 -0.2886754 0.2202331 -0.7564664 0.2562789 -0.8130341 0.2308703 2.547929 1.571869 1.243409 -0.314238 0.04267145 -0.8284208 0.1342442 0.871422 1.061242 -2.301876 0.6803951 -2.287098 0.6494786 2.515703 -1.275812 1.298358 -2.326134 -2.175298 -2.392138 -1.486418 -2.356071 1.002069 -2.39408 -0.2827097 -2.343838 -1.110577 -1.216508 3.382316 1.476963 2 -104
0.3643791 0.2980531 0.6868159 1.384512 1.72338 0.6970075 1.119348 -0.4794922 0.4136396 -0.8969582 0.4254435 -0.9571491 0.4161036 2.327191 1.389457 0.8359741 -0.4319111 -0.2084885 -0.9605314 0.3964401 0.8199069 1.183867 -2.19115 0.6609665 -2.218628 0.6148895 2.773012 -1.070485 1.381878 -2.212218 -1.770478 -2.295237 -1.32609 -2.205808 1.238653 -2.297018 -0.2089099 -2.228297 -1.093518 -0.8740351 3.018091 1.756793 2 -100
0.2888398 0.2902407 0.9130428 0.8442562 1.624364 1.059237 0.9676536 -0.4771854 0.3534035 -1.038798 0.3527533 -1.100726 0.3684351 2.00899 1.390272 0.5170211 -0.2845917 -0.58391 -1.101192 0.3662305 0.7431967 1.096273 -1.915573 0.470785 -1.912425 0.4299923 2.841298 -0.8050813 1.369527 -1.920198 -1.604382 -2.008579 -1.276877 -1.898116 1.21106 -1.988405 -0.2914599 -1.932842 -1.201352 -0.6655016 2.658123 1.842198 2 -96
0.2363023 0.3251222 1.272046 0.4091975 1.534795 1.640517 0.8678084 -0.4080199 0.3045947 -1.127554 0.3048212 -1.186334 0.3426421 1.617131 1.460122 0.3113356 0.0351105 -0.9237926 -1.197342 0.3111435 0.4939251 0.8202638 -1.613455 0.2957362 -1.523027 0.2671795 2.59025 -0.5433515 1.241999 -1.594819 -1.595407 -1.632043 -1.29218 -1.570676 1.026261 -1.649174 -0.4644987 -1.58758 -1.398066 -0.5446838 2.438955 1.704503 2 -92
0.353917 0.4689348 1.469478 0.2647856 1.311504 2.081218 0.7355478 -0.3061327 0.3781087 -1.002466 0.3660895 -1.066746 0.404099 1.096969 1.370705 0.1021677 0.2257788 -1.051048 -1.083417 0.3570447 0.03254643 0.4326185 -1.281188 0.3526959 -1.147952 0.3403316 2.07293 -0.3683 1.021624 -1.248775 -1.672474 -1.226525 -1.337138 -1.248721 0.7570124 -1.275186 -0.730085 -1.205844 -1.668202 -0.4997038 2.111491 1.312191 2 -88
0.4547166 0.5857645 1.3294 0.2691746 0.916115 1.98316 0.6199584 -0.4979621 0.4166858 -0.7618291 0.4286948 -0.8337696 0.4045846 0.4779323 1.020103 -0.1125566 0.0796217 -0.8805602 -0.8535395 0.3590505 -0.5247948 0.06053716 -0.8158667 0.5816402 -0.7210943 0.5931835 1.463584 -0.2057414 0.8057506 -0.7837178 -1.576387 -0.7377525 -1.240463 -0.8215303 0.4515053 -0.7801026 -0.9394481 -0.7251752 -1.828957 -0.393841 1.63411 1.099744 2 -84
0.3963421 0.555749 1.01561 0.2839423 0.5119817 1.420441 0.6104065 -0.8547888 0.3481599 -0.5620499 0.4274769 -0.6259032 0.3211939 -0.1013468 0.5874993 -0.2310868 -0.2367513 -0.4869002 -0.6786046 0.2705579 -1.05898 -0.2305589 -0.3040564 0.7984011 -0.2974437 0.8288902 0.7962685 -0.04107397 0.684653 -0.2939439 -1.182723 -0.2490052 -0.9324939 -0.3616442 0.2416441 -0.2724344 -0.9379623 -0.2353153 -1.780091 -0.1774312 0.8825401 1.15088 2 -80
0.4174269 0.5234143 0.8148067 0.3554754 0.2793406 0.8932299 0.6285506 -0.7386778 0.2497659 -0.2797708 0.357636 -0.3208022 0.2291085 -0.5388746 0.3128216 -0.2370433 -0.3784637 -0.1193687 -0.4078414 0.1823066 -1.517619 -0.5001346 0.09946639 0.9770787 0.05296195 1.00713 0.0008751262 0.009171746 0.6065333 0.09603753 -0.7802373 0.1301339 -0.5859724 -0.001334234 0.1294616 0.1309581 -0.7602295 0.1466509 -1.626931 -0.05985802 -0.4080968 0.6312603 2 -76
0.5157766 0.5830152 0.7201494 0.3993707 0.222947 0.7114673 0.5012396 -0.1779575 0.08205774 0.1619961 0.1663796 0.1542177 0.06892471 -0.8041998 0.2298859 -0.1933005 -0.2313302 0.07471197 0.08206558 0.01239573 -1.829017 -0.7499905 0.3667172 1.084852 0.3214528 1.082029 -0.8141441 -0.0378307 0.4692446 0.3790326 -0.5011806 0.4013547 -0.3092167 0.2733379 0.02197313 0.430047 -0.5225253 0.4166122 -1.421082 -0.06790636 -1.733829 -0.5391054 2 -72
0.5154548 0.6351531 0.5834085 0.4238652 0.2554315 0.801841 0.2517861 0.3110284 -0.1922869 0.5858298 -0.1507647 0.6184456 -0.2043492 -0.9384229 0.2183641 -0.1331171 0.01446126 0.1363811 0.5859163 -0.3085604 -1.917366 -0.9338783 0.5351825 0.9096361 0.4789458 0.8584257 -1.492567 -0.06731903 0.2346032 0.5474175 -0.1165063 0.5720006 -0.1056006 0.4777834 -0.1395315 0.6132385 -0.3893964 0.5729317 -1.186518 -0.0735939 -2.289067 -1.098764 2 -68
0.4245291 0.5725531 0.3870667 0.5699918 0.276558 0.8235834 0.003930721 0.6118498 -0.3604526 0.7934826 -0.3688544 0.8691033 -0.3727119 -1.008071 0.1378366 -0.1039895 0.1100172 0.08303217 0.8511002 -0.5066443 -1.818546 -1.135896 0.6494792 0.368547 0.5678794 0.3031555 -1.992123 -0.02649197 -0.1209973 0.629654 0.4421636 0.671449 0.1080891 0.6238266 -0.3761328 0.6880288 -0.3287247 0.6295945 -0.8109686 -0.02093028 -2.126842 -0.7179937 2 -64
0.3187913 0.3680465 0.2225991 0.6821188 0.2082042 0.4860535 -0.1876892 0.7798339 -0.3431797 0.7899675 -0.3905468 0.8975456 -0.3403881 -1.057679 -0.05912662 -0.1442227 0.03857559 -0.04434544 0.8688365 -0.4565595 -1.637769 -1.413653 0.8080429 -0.2979402 0.7283325 -0.3166317 -2.29741 0.083621 -0.5808738 0.7574145 0.9748495 0.812934 0.4202866 0.8022629 -0.6271011 0.7934641 -0.1526662 0.7277861 -0.2517148 0.09387269 -1.789572 -0.2741017 2 -60
0.2165462 0.09033933 0.1702837 0.5810975 0.09887651 -0.0248026 -0.2538929 0.7584383 -0.3382552 0.7086216 -0.3805731 0.8172593 -0.3087554 -1.112914 -0.2537372 -0.1730341 0.02842988 -0.1069689 0.7839229 -0.3915043 -1.4156 -1.643922 1.081797 -0.800129 1.033247 -0.7496138 -2.438252 0.2488181 -1.020513 1.030181 1.249228 1.080268 0.6764345 1.058081 -0.8392329 1.043766 0.005772799 0.9731972 0.1524295 0.2006371 -1.553527 -0.282358 2 -56
0.2019061 -0.08701768 0.1823104 0.4361224 0.03742512 -0.2852368 -0.2078308 0.6615019 -0.4322106 0.5702937 -0.4325307 0.6422938 -0.3888113 -1.13028 -0.3320232 -0.108137 0.2117434 -0.01764672 0.6270929 -0.440008 -1.143299 -1.652348 1.245293 -1.015451 1.229362 -0.9286464 -2.433836 0.3973389 -1.277253 1.207011 1.18549 1.233494 0.7218002 1.206965 -0.9242563 1.202042 0.02197766 1.145416 0.3394801 0.2764025 -1.468742 -0.27712 2 -52
0.3458936 -0.1293789 0.2048714 0.3752923 0.01104683 -0.232483 -0.18886 0.5866672 -0.5775769 0.2715904 -0.5563683 0.2787767 -0.5538809 -1.018971 -0.310819 0.005552112 0.4332066 0.1891557 0.2942626 -0.5773148 -0.8110204 -1.35152 1.099095 -0.9145189 1.103369 -0.8282991 -2.208245 0.4223771 -1.260555 1.059863 0.9422082 1.039874 0.6732384 1.104925 -0.7608984 1.039347 0.1132558 1.035106 0.6555617 0.3686669 -1.3463 -0.02641002 2 -48
0.3855694 -0.07893607 0.1712688 0.2043718 -0.02943339 -0.1077577 -0.1702165 0.2793024 -0.6048179 -0.128287 -0.6050077 -0.1551778 -0.6436524 -0.8068339 -0.2506799 0.0785113 0.4488983 0.3806618 -0.1390621 -0.6290031 -0.4401278 -0.8561277 0.8770378 -0.5865214 0.9029291 -0.5253233 -1.764772 0.2957375 -1.056077 0.8590271 0.6885876 0.7722377 0.6293707 0.9234453 -0.4984765 0.8016401 0.2604975 0.844352 1.042466 0.461593 -0.9287655 -0.3026882 2 -44
0.09340788 0.0579741 -0.04520645 -0.1738408 -0.1369829 -0.09819737 -0.09154771 -0.3008325 -0.3514583 -0.3889293 -0.3729436 -0.3899884 -0.4582526 -0.6386946 -0.2366641 0.06188474 0.2567791 0.4375965 -0.4201039 -0.3810202 -0.1076819 -0.3911868 0.787133 -0.2399693 0.8204512 -0.2152314 -1.290587 0.05334466 -0.851362 0.8218066 0.4719086 0.7039199 0.5461937 0.8168781 -0.3999629 0.724941 0.2159085 0.768849 1.130371 0.5274985 -0.5235628 -0.7920347 2 -40
-0.2971255 0.1040029 -0.3559475 -0.5888994 -0.3621387 -0.2531573 -0.1829675 -0.633689 -0.006951007 -0.4577077 -0.01162112 -0.4380896 -0.105095 -0.502729 -0.3356797 -0.005281687 0.08552828 0.3754059 -0.4983454 0.02659483 0.1790862 -0.0609034 0.7241751 0.001333191 0.7370773 0.01326757 -0.9297834 -0.1993408 -0.7020173 0.7828827 0.3740318 0.7125285 0.4786749 0.7326635 -0.4534466 0.6927478 0.1103635 0.7187836 1.012659 0.5677137 -0.4312971 -0.6174074 2 -36
-0.5358534 -0.02869578 -0.5636223 -0.9037217 -0.6594328 -0.507194 -0.495584 -0.5310931 0.2287476 -0.4612173 0.2575911 -0.438306 0.2163079 -0.2758863 -0.5068001 -0.02104818 0.03888358 0.3054554 -0.4815608 0.3556354 0.4711673 0.185171 0.5188389 0.1021785 0.5160635 0.1248151 -0.6516905 -0.3229732 -0.5542637 0.5464491 0.4295295 0.5657252 0.5191938 0.5363688 -0.4596042 0.5072287 0.2176038 0.5354727 1.079698 0.5559269 -0.2247818 -0.1910048 2 -32
-0.5928798 -0.2048767 -0.6152858 -0.9971331 -0.8841837 -0.7753714 -0.6747054 -0.3615443 0.4252197 -0.4915711 0.4621948 -0.4512012 0.4850818 0.02238418 -0.6678747 0.04266134 -0.008549105 0.3043249 -0.4658609 0.6126293 0.769453 0.4449725 0.1689383 0.01314753 0.1549656 0.03511131 -0.3281766 -0.2645182 -0.4060757 0.1568035 0.470394 0.2115023 0.6057559 0.2061602 -0.2971548 0.1568758 0.4823603 0.2076585 1.357291 0.4954287 0.4070541 -0.2112461 2 -28
-0.5485544 -0.3538108 -0.6449073 -0.8877745 -0.9752508 -1.063541 -0.6094811 -0.2895687 0.5592361 -0.5111105 0.5676773 -0.4650978 0.6341073 0.2565982 -0.8047599 0.0862737 -0.1668603 0.3293188 -0.4450396 0.7767141 1.078033 0.735977 -0.06218785 -0.25325 -0.09524811 -0.2266117 0.142625 -0.04553509 -0.2722814 -0.05893904 0.3778897 -0.07098512 0.6148195 -0.004657789 -0.04118586 -0.08012938 0.6700435 -0.02462468 1.519248 0.436287 0.9478066 -0.7310441 2 -24
-0.5294559 -0.4937782 -0.8939169 -0.8331177 -1.05097 -1.414179 -0.567131 -0.1895584 0.4698141 -0.3159728 0.433472 -0.286581 0.5154274 0.3179857 -0.940502 0.005008261 -0.3335945 0.2928183 -0.2226774 0.6748993 1.383991 0.9771963 0.01284938 -0.5513416 -0.01963934 -0.4932145 0.6857173 0.2707574 -0.1316646 0.05498308 0.299551 -0.02576382 0.5251396 0.06203137 0.1512387 0.006254965 0.6783858 0.02165384 1.385237 0.3464085 0.851279 -1.129127 2 -20
-0.5868816 -0.7000771 -1.34624 -0.8522049 -1.196126 -1.802554 -0.6672952 0.08299405 0.1387204 0.215216 0.06777152 0.2337078 0.1358554 0.2504681 -1.059041 -0.1493469 -0.3551483 0.2349155 0.3256431 0.2665684 1.632189 1.105362 0.1792227 -0.6358988 0.1706739 -0.5923758 1.101188 0.5557916 0.01871356 0.208259 0.4368008 0.1589482 0.4807974 0.179108 0.2373092 0.2012953 0.6672541 0.1579841 1.219371 0.1876714 0.2804046 -1.186744 2 -16
-0.7296095 -1.006851 -1.750182 -0.8336974 -1.333469 -2.114333 -0.7754799 0.5176823 -0.2225051 0.9765798 -0.305461 0.9816797 -0.2486442 0.2331815 -1.08083 -0.2351568 -0.202716 0.2772045 1.08532 -0.1966385 1.851461 1.162646 0.1176024 -0.4953375 0.1387746 -0.5493115 1.287406 0.6710317 0.1155846 0.1064662 0.7233568 0.1422745 0.5407228 0.1003977 0.2258514 0.1769424 0.7528143 0.09294844 1.20847 -0.03253924 -0.2955965 -1.078168 2 -12
-0.869885 -1.221806 -1.961811 -0.8000726 -1.315638 -2.13981 -0.7310048 0.8316069 -0.4078242 1.605489 -0.4794887 1.568979 -0.416563 0.4392972 -0.8730997 -0.1869084 0.1150111 0.4233377 1.685223 -0.465629 2.173221 1.264053 -0.2686505 -0.4163317 -0.2262406 -0.5438752 1.374266 0.5939555 0.1287571 -0.2863893 0.8972002 -0.2044302 0.5241573 -0.2368468 0.1129295 -0.1668158 0.7959217 -0.2639685 1.156854 -0.3632692 -0.3504325 -0.4937397 2 -8
-0.8395533 -1.153135 -1.966038 -0.6131109 -1.068343 -1.779139 -0.5025448 0.8255974 -0.5306353 1.745157 -0.5638422 1.653863 -0.5007666 0.8867736 -0.4054289 -0.01216199 0.5078722 0.5787082 1.765737 -0.6153287 2.593644 1.451182 -0.8187436 -0.4103086 -0.7947887 -0.5292669 1.512169 0.3960958 0.155066 -0.8442867 0.8365893 -0.7583269 0.341357 -0.7548994 0.01208405 -0.6995527 0.7337477 -0.7913539 1.008262 -0.7448125 0.2405597 0.451484 2 -4
-0.5967333 -0.8809519 -1.797786 -0.2022444 -0.6818631 -1.284507 -0.2130354 0.7435234 -0.6326583 1.6117 -0.622214 1.475349 -0.5594713 1.423332 0.1593822 0.2564398 0.770942 0.6298058 1.548047 -0.6664844 2.876345 1.586857 -1.300042 -0.3435543 -1.321716 -0.424855 1.568306 0.09587791 0.2125568 -1.371536 0.5764104 -1.28579 0.06449042 -1.272722 -0.0348949 -1.201833 0.5885729 -1.284818 0.8079111 -1.062662 0.9239455 1.12185 2 0
-0.2655816 -0.50884 -1.521208 0.287585 -0.2265771 -0.8953192 0.14743 0.9210606 -0.3978285 1.640681 -0.3735541 1.483061 -0.3057204 1.94959 0.7014102 0.6510433 0.8175063 0.600111 1.518969 -0.3854259 2.880348 1.535887 -1.753519 -0.3371345 -1.792641 -0.3898141 1.356304 -0.3388725 0.190415 -1.846382 0.1982463 -1.777617 -0.2463867 -1.774836 -0.1977034 -1.692184 0.3384216 -1.743916 0.5399916 -1.364734 1.437382 0.9405642 2 4
0.01265274 -0.06158272 -1.217409 0.7838064 0.3135453 -0.5209046 0.6248692 1.395639 0.129937 1.750364 0.1426702 1.617056 0.2150428 2.488322 1.223017 1.176287 0.7554529 0.6682874 1.649867 0.1213797 2.753867 1.411603 -2.28928 -0.4365566 -2.326921 -0.4905013 0.9800913 -0.8509356 0.0670893 -2.343455 -0.2442876 -2.314258 -0.5529413 -2.322546 -0.5070658 -2.267196 0.04045202 -2.249617 0.3176681 -1.670772 1.918819 0.1087993 2 8
0.2233987 0.3112144 -0.9725414 1.151002 0.8004173 -0.1361889 0.9090073 1.92066 0.5276838 1.696537 0.5200949 1.619583 0.6121099 2.954034 1.641149 1.576775 0.6467825 0.7937383 1.665733 0.5063756 2.670188 1.38078 -2.615219 -0.6056322 -2.664548 -0.6776003 0.6877993 -1.285829 -0.1548967 -2.621819 -0.8223555 -2.624408 -0.907661 -2.661929 -0.8436954 -2.623863 -0.3530819 -2.55049 0.08600087 -1.877209 2.373262 -0.2755226 2 12
0.3898582 0.4826233 -0.8661182 1.247318 1.017855 0.1122741 0.7871146 2.195853 0.6474293 1.632891 0.6325276 1.594204 0.7351844 3.16092 1.847711 1.641644 0.4186221 0.7637088 1.657377 0.6661212 2.638201 1.41006 -2.383555 -0.9115792 -2.443362 -0.9819979 0.5889241 -1.528929 -0.4992807 -2.365849 -1.593327 -2.396208 -1.346179 -2.47843 -1.203901 -2.418688 -0.9482248 -2.349359 -0.3394988 -1.877309 2.736079 -0.07266337 2 16
0.430566 0.4936289 -0.888249 1.251951 0.9644741 0.2155623 0.5276374 2.126988 0.5675038 1.696606 0.5578757 1.665515 0.6487033 3.083777 1.86481 1.497742 0.139514 0.5350141 1.730481 0.6213713 2.606936 1.428859 -1.788928 -1.341411 -1.85437 -1.401346 0.6052576 -1.5736 -0.8482463 -1.748539 -2.378584 -1.811721 -1.686616 -1.9194 -1.542021 -1.850776 -1.499049 -1.802149 -0.7541075 -1.651197 2.858464 0.2203053 2 20
0.3652749 0.4201843 -0.9243292 1.384811 0.7964386 0.2514761 0.4214305 1.844653 0.405927 1.699722 0.3937188 1.668506 0.4661528 2.870099 1.787126 1.315599 0.1056893 0.171167 1.704507 0.4454514 2.602476 1.439951 -1.264214 -1.852697 -1.348233 -1.9082 0.6379853 -1.4778 -1.050494 -1.212578 -2.863109 -1.294124 -1.744999 -1.390051 -1.704073 -1.352013 -1.674062 -1.287531 -0.8316986 -1.306952 2.697813 0.5913991 2 24
0.3005334 0.3096219 -1.039644 1.489306 0.583415 0.2161478 0.4265491 1.613152 0.1559158 1.582068 0.1580787 1.542191 0.1646305 2.676279 1.725277 1.125311 0.4513952 -0.2326997 1.566626 0.1406474 2.722721 1.480917 -0.8475161 -2.400614 -0.97684 -2.468859 0.7128241 -1.289407 -1.104476 -0.8200197 -2.986188 -0.9264816 -1.609845 -0.9766457 -1.683448 -0.9804086 -1.558292 -0.8946531 -0.66373 -0.9514153 2.441765 0.8261291 2 28
0.1278927 0.1501592 -1.401188 1.34602 0.2728597 0.0453435 0.2478189 1.5287 -0.254074 1.514039 -0.2225086 1.476639 -0.2960768 2.566456 1.706265 0.8647882 0.9599817 -0.5435741 1.518847 -0.304188 2.977544 1.640304 -0.3974123 -2.774024 -0.5830827 -2.880444 0.9000868 -1.045602 -1.040621 -0.3915612 -2.969997 -0.5379817 -1.450255 -0.5580915 -1.541331 -0.5736926 -1.367779 -0.496479 -0.4889725 -0.6397225 2.334664 0.5808344 2 32
-0.09337911 -0.0818243 -1.828443 1.108732 -0.1199903 -0.281325 -0.1946028 1.470517 -0.5511044 1.54113 -0.5135632 1.545775 -0.5898556 2.496065 1.664206 0.5049472 1.37155 -0.689025 1.558994 -0.5748844 3.226329 1.928165 -0.04470401 -2.86642 -0.2511928 -2.991752 1.153022 -0.8178768 -0.886553 -0.04673479 -3.022139 -0.208442 -1.316433 -0.2425286 -1.282409 -0.229055 -1.144713 -0.1692614 -0.3384041 -0.4814625 2.341208 -0.05233309 2 36
-0.08766404 -0.317986 -2.010738 1.022063 -0.4607494 -0.6732261 -0.4960417 1.495789 -0.4521829 1.60016 -0.4125722 1.644985 -0.4602169 2.35054 1.58948 0.1833308 1.661617 -0.67598 1.590746 -0.4126281 3.293928 2.167856 0.1243495 -2.911263 -0.05452093 -3.007746 1.269782 -0.7049341 -0.7738765 0.1096289 -3.261278 -0.04713731 -1.275786 -0.116358 -1.092475 -0.04704265 -1.044661 0.00195889 -0.2916153 -0.5267104 2.003227 -0.4939173 2 40
0.05926145 -0.3809133 -1.954952 1.028471 -0.6930576 -0.9211509 -0.2721982 1.704975 -0.1721205 1.712991 -0.1071828 1.769389 -0.1645652 2.045148 1.517753 0.07254913 1.957565 -0.5013157 1.702812 -0.07549208 3.066331 2.212548 0.3136332 -3.130087 0.1737006 -3.179806 1.065194 -0.7790446 -0.8173187 0.2871275 -3.596473 0.1543399 -1.328107 0.03407716 -1.198381 0.1707363 -1.201577 0.2046009 -0.4124174 -0.6050241 1.18421 -0.9462433 2 44
0.1322872 -0.1756105 -1.904662 0.9635267 -0.8416643 -0.8972639 0.3439739 1.864562 -3.177469e-05 1.944189 0.1031721 1.994922 0.002582268 1.609145 1.426409 0.2031864 2.212187 -0.1292509 1.971883 0.09932652 2.572397 2.18264 0.5707161 -3.371181 0.4603356 -3.378235 0.6024263 -1.025774 -0.9571046 0.5329357 -3.801095 0.4607114 -1.35314 0.2864519 -1.512509 0.4768192 -1.447195 0.4800306 -0.5366992 -0.6087749 0.3910735 -1.947397 2 48
0.2025554 0.07036407 -1.972053 0.8962083 -0.8821971 -0.7715927 0.8611948 1.832614 0.08687394 2.270478 0.2344587 2.283596 0.075189 1.173012 1.265783 0.4616483 2.195494 0.4151091 2.297403 0.1249863 1.989857 2.279287 0.7056565 -3.325896 0.6378561 -3.299761 0.1202116 -1.383884 -1.05009 0.6870411 -3.95544 0.6716712 -1.423422 0.4574864 -1.813727 0.6811511 -1.73274 0.6337421 -0.6703246 -0.6996701 0.1855908 -2.815561 2 52
0.4589363 0.1749756 -1.999305 1.104038 -0.7871487 -0.708513 1.034049 1.985664 0.1739434 2.506343 0.3456926 2.493626 0.1632154 0.9039538 1.086298 0.7092235 1.899887 1.040572 2.511972 0.1250974 1.491908 2.50684 0.628705 -2.985616 0.6004137 -2.95489 -0.2381826 -1.789945 -0.9930938 0.6638393 -4.2563 0.6465302 -1.679514 0.4238033 -1.976382 0.6565511 -2.148679 0.5734754 -0.9692637 -0.9478211 0.5882453 -3.063963 2 56
0.9004371 0.2932311 -1.847481 1.665129 -0.565197 -0.6242178 1.07878 2.464038 0.300583 2.500889 0.4467973 2.527872 0.3022507 0.8373644 0.9907423 0.9221644 1.590483 1.61001 2.528363 0.1783285 1.155538 2.725435 0.3435211 -2.595563 0.2896342 -2.58655 -0.5013052 -2.152389 -0.7770622 0.3888897 -4.487078 0.3241647 -1.95984 0.1442786 -1.950011 0.3497413 -2.476568 0.2883886 -1.305542 -1.203885 1.039524 -3.153896 2 60
1.276785 0.5117261 -1.579828 2.18124 -0.2811196 -0.4099483 1.219091 2.900333 0.5036359 2.325995 0.5938282 2.397384 0.5048405 0.7872033 0.9326231 1.092538 1.436922 1.918397 2.384989 0.3526223 0.9239927 2.762764 -0.03425043 -2.354547 -0.1582088 -2.367242 -0.7783687 -2.417004 -0.5436894 -0.06242074 -4.350932 -0.1357848 -1.990516 -0.2443931 -1.762007 -0.09647558 -2.41647 -0.102794 -1.36352 -1.288234 1.235718 -3.505103 2 64
1.379927 0.7397978 -1.311822 2.356 -0.02969358 -0.07131385 1.544814 3.214394 0.708692 2.161811 0.7525168 2.21985 0.7015259 0.5536717 0.7793722 1.144232 1.365688 1.908871 2.222852 0.5845948 0.6552136 2.574251 -0.2821919 -2.247776 -0.433827 -2.292104 -1.104637 -2.616847 -0.4244739 -0.3977979 -4.005615 -0.409533 -1.769269 -0.4832598 -1.52196 -0.4011686 -2.059231 -0.3494288 -1.072493 -1.127446 1.290194 -4.446599 2 68
1.264029 0.9204174 -1.043053 2.460531 0.2169855 0.2572297 2.169636 3.401947 0.8902326 2.074253 0.9140936 2.087842 0.8746107 0.1686827 0.5726232 1.14133 1.213175 1.811373 2.135491 0.8120422 0.3522971 2.358599 -0.4195903 -2.022007 -0.5362855 -2.100953 -1.354534 -2.838781 -0.3068564 -0.5387947 -3.783542 -0.4857108 -1.524921 -0.5979944 -1.332016 -0.5549935 -1.738784 -0.4653594 -0.6913425 -0.9718565 1.208389 -5.998533 2 72
1.101493 1.030911 -0.7741823 2.730628 0.5205439 0.4696626 2.907384 3.327643 1.107626 2.046623 1.120839 2.040787 1.06901 -0.1530392 0.483911 1.187054 0.942412 1.783971 2.123209 1.037664 0.1276337 2.269163 -0.6576801 -1.6304 -0.7220932 -1.739263 -1.405087 -3.139729 -0.05835182 -0.701753 -3.74152 -0.6320263 -1.399382 -0.8082693 -1.202286 -0.7662054 -1.590054 -0.6819844 -0.404916 -1.063358 1.081172 -7.238413 2 76
1.002449 1.080973 -0.6333299 3.11578 0.7906883 0.6199478 3.286274 3.211133 1.292662 2.1724 1.301828 2.187218 1.226426 -0.2706113 0.5606571 1.20873 0.7386987 1.694979 2.274756 1.211881 -0.004501906 2.228436 -0.9873341 -1.407958 -1.032471 -1.573386 -1.310131 -3.456483 0.181673 -0.9721636 -3.743324 -0.9133759 -1.370404 -1.125602 -1.161632 -1.070232 -1.565215 -0.9970065 -0.2417577 -1.234169 1.081848 -7.398214 2 80
1.024863 1.167832 -0.6324284 3.52618 0.912922 0.7172212 3.245561 3.176035 1.535016 2.358718 1.554971 2.411559 1.451521 -0.2736283 0.6951069 1.156875 0.7781774 1.432232 2.501791 1.478469 -0.100204 2.153696 -1.297346 -1.44709 -1.395314 -1.649024 -1.242648 -3.735494 0.279443 -1.311477 -3.652664 -1.242361 -1.341676 -1.457516 -1.188859 -1.397334 -1.558866 -1.31275 -0.2020988 -1.308281 1.166594 -6.977227 2 84
1.050168 1.291747 -0.6429598 3.718024 0.8825095 0.71233 3.081143 2.93663 2.026907 2.239311 2.050516 2.327439 1.918803 -0.3194321 0.7799097 1.058903 0.9911263 1.069982 2.401734 2.016438 -0.1977642 2.056053 -1.612913 -1.444195 -1.821772 -1.619791 -1.257338 -4.00636 0.3846234 -1.719722 -3.321688 -1.636282 -1.139553 -1.830519 -1.028707 -1.790192 -1.305343 -1.675143 -0.0674663 -1.274205 1.373339 -6.656116 2 88
0.9389753 1.265225 -0.6231261 3.664078 0.8381009 0.7357457 2.904208 2.555969 2.449506 1.784141 2.469869 1.881238 2.312718 -0.3408695 0.8534459 0.9282705 1.235844 0.736702 1.903388 2.454249 -0.2380713 1.98376 -1.964767 -1.221473 -2.256264 -1.379565 -1.128239 -4.213999 0.6668113 -2.128489 -2.753557 -2.068721 -0.755392 -2.256785 -0.5529558 -2.250816 -0.7186753 -2.089225 0.3276086 -1.188867 1.833716 -6.594504 2 92
0.8938757 1.037835 -0.5925503 3.675253 0.8855917 0.8815698 2.712382 2.500293 2.372241 1.373785 2.408315 1.440251 2.229988 -0.2637932 0.9482838 0.7879226 1.429434 0.4922035 1.42796 2.340338 -0.1626554 1.963499 -2.332792 -0.9124157 -2.61188 -1.095111 -0.6367006 -4.266261 1.04516 -2.470788 -2.159775 -2.450163 -0.4218459 -2.649674 0.02404265 -2.655968 -0.1055591 -2.473635 0.7808199 -1.187239 2.259279 -6.462046 2 96
1.009543 0.7518774 -0.5799687 3.690392 0.8565002 0.9584515 2.513092 2.712545 2.011734 1.207273 2.061777 1.225049 1.879025 -0.2844785 0.9222742 0.6232637 1.503225 0.2603643 1.213457 1.927382 -0.05623857 1.940894 -2.637014 -0.7114589 -2.843744 -0.9168972 0.1097189 -4.144332 1.375385 -2.698915 -1.620321 -2.731369 -0.1730084 -2.893887 0.5173703 -2.898868 0.3671911 -2.739951 1.16001 -1.21546 2.355457 -6.0075 2 100
1.103318 0.5667188 -0.5956908 3.547215 0.633708 0.9444357 2.311665 2.743414 1.763512 1.142667 1.806081 1.117907 1.620646 -0.4897871 0.7196322 0.4187321 1.511919 -0.01068177 1.108033 1.647627 0.01471168 1.892169 -2.777872 -0.5815802 -2.920513 -0.7960558 0.863215 -3.845604 1.662371 -2.776726 -1.121643 -2.859271 0.08771437 -2.951293 0.8640681 -2.960295 0.7668091 -2.830594 1.465937 -1.12674 2.364268 -6.04381 2 104
1.088761 0.5785374 -0.6122313 3.425891 0.3800431 1.026237 2.149944 2.503354 1.659237 0.9825056 1.709612 0.9263153 1.494656 -0.7230052 0.4578632 0.1993497 1.491978 -0.2878647 0.9321854 1.554163 0.05384909 1.845965 -2.81181 -0.325882 -2.915344 -0.5335616 1.491357 -3.406963 1.935149 -2.792981 -0.7855866 -2.847971 0.3262425 -2.916453 1.049913 -2.931378 1.135838 -2.799272 1.693698 -0.9361679 2.413009 -6.880014 2 108
1.033224 0.7676048 -0.5802379 3.354044 0.2571543 1.165539 2.112615 2.286002 1.594761 0.6800765 1.668907 0.6170086 1.446205 -0.8986171 0.2407751 -0.03991643 1.291192 -0.6219558 0.6590337 1.544201 0.01727412 1.776266 -2.839232 0.02215443 -2.934001 -0.1394047 2.023568 -2.900013 2.16478 -2.813353 -0.715858 -2.810244 0.5316452 -2.869293 1.187186 -2.91365 1.501859 -2.756225 1.941795 -0.7312478 2.319667 -7.641466 2 112
1.20354 1.03275 -0.4422735 3.271888 0.3054165 1.255804 2.258689 2.433488 1.477407 0.3756221 1.558764 0.3318578 1.37951 -1.017186 0.1136472 -0.2892756 0.8708706 -0.9477711 0.4024141 1.463581 -0.1584659 1.718355 -2.85059 0.2450354 -2.977794 0.1485327 2.550135 -2.373091 2.362433 -2.821482 -0.8892519 -2.842093 0.6207316 -2.815174 1.402744 -2.912227 1.721418 -2.748047 2.080014 -0.603719 2.137867 -8.033069 2 116
1.558812 1.223408 -0.2808965 3.255453 0.4366754 1.234056 2.458291 2.779017 1.333126 0.2255922 1.395877 0.209094 1.264598 -1.084661 0.0187431 -0.460421 0.404512 -1.069044 0.2856788 1.302768 -0.4723225 1.741246 -2.851269 0.2768654 -3.022422 0.2113601 3.032059 -1.849784 2.580212 -2.863746 -1.130156 -2.94287 0.5067318 -2.777898 1.708712 -2.934474 1.672205 -2.763103 1.899618 -0.5104474 2.139404 -8.140402 2 120
1.663726 1.331312 -0.3245006 3.237711 0.4845686 1.014011 2.572532 2.773052 1.312504 0.1976991 1.342158 0.2215424 1.227896 -1.132462 -0.1649395 -0.4839694 -0.02119717 -1.027265 0.2742014 1.242193 -0.876797 1.728217 -2.875911 0.2056636 -3.061698 0.1479374 3.304191 -1.379395 2.810961 -2.945308 -1.082314 -3.030813 0.4319471 -2.785611 2.026615 -2.988737 1.64295 -2.783414 1.698246 -0.369148 2.522951 -8.08092 2 124
1.49743 1.430627 -0.6235617 3.158837 0.3707272 0.5686481 2.607913 2.29418 1.365458 0.1142669 1.39244 0.1960434 1.232374 -1.183796 -0.4437617 -0.3817716 -0.4636718 -0.9029298 0.219403 1.236179 -1.367725 1.590905 -2.891345 0.1869051 -3.066006 0.1591609 3.309737 -1.078497 2.992587 -2.947453 -0.6211092 -3.036558 0.6440746 -2.797596 2.274954 -2.994888 1.913557 -2.771259 1.849054 -0.2404943 3.177138 -7.970037 2 128
