Fp1 Fp2 AF3 AF4 Fz F3 F4 F7 F8 FC5 FC6 FT7 FT8 Cz FC1 FC2 C3 C4 T7 T8 A1 A2 CP1 CP2 CP5 CP6 TP7 TP8 Pz P3 P4 P7 P8 PO9 PO10 PO3 PO4 PO7 PO8 O1 O2 Oz ID time
4.984538 0.9099825 0.4947971 0.7988708 -0.1874028 0.7296919 -0.2505998 -1.581328 2.152347 0.2218356 0.9028203 -0.5656616 0.9784535 2.025062 0.7467776 0.1270065 0.5458168 1.014881 1.333495 3.573124 0.3921912 0.8840555 0.3942021 0.475701 1.283988 1.171785 -0.9404762 -1.097371 -0.7428576 -0.3055571 -1.251439 0.4989185 -1.0751 -1.374504 -1.196339 -0.1898887 -1.172869 -0.668662 -1.464608 -1.719589 5.77654 -16.6326 1 -168
4.591362 0.9232346 0.6650376 0.7748541 -0.2213867 0.6794286 -0.08360396 -1.630542 2.372062 0.04948464 1.370016 -1.149397 1.371904 2.011467 0.5953298 0.2230669 0.4531558 0.9917032 1.100579 3.113004 0.3629808 0.8641608 0.3352441 0.4392694 1.328483 1.845795 -0.9571306 -1.261055 -0.748494 -0.4608031 -0.8990208 0.4640349 -0.9600182 -1.433238 -1.152216 -0.317688 -1.092332 -0.6230158 -1.33658 -1.811955 6.071448 -16.85868 1 -164
4.254233 1.069124 0.7571035 0.9010242 -0.118555 0.6642032 0.08812398 -1.507519 2.34277 -0.1190431 1.621056 -1.671364 1.567831 2.160936 0.4837402 0.518851 0.2724297 0.979307 0.5380213 2.156677 0.3669486 0.9937559 0.1538686 0.3380195 0.9711494 2.000882 -0.8591 -1.429049 -0.7365566 -0.7077274 -0.7772118 0.1823974 -0.9667622 -1.53352 -1.176036 -0.4844714 -1.106379 -0.7091131 -1.343577 -1.83172 6.133812 -14.43858 1 -160
4.117353 1.203508 0.6305347 1.045213 -0.007469318 0.6792689 0.1868253 -1.27885 2.21201 -0.3604099 1.505851 -1.936937 1.430527 2.331531 0.377781 0.786067 0.04408995 0.9066579 -0.2289396 1.313617 0.3645341 1.123154 -0.2072689 0.2112173 0.3881284 1.564183 -0.7099718 -1.574438 -0.7679676 -0.949762 -0.8872702 -0.2885644 -1.060374 -1.657801 -1.244807 -0.6287045 -1.189941 -0.8758659 -1.473659 -1.888129 6.001942 -9.206895 1 -156
3.880565 1.252751 0.3641807 1.105345 -0.01457463 0.5447955 0.2731946 -1.302294 2.349887 -0.7732487 1.399076 -1.766228 1.316397 2.417554 0.2147736 0.8695535 -0.22259 0.8232714 -0.677923 1.315965 0.3399304 1.131644 -0.6765059 0.2617632 -0.06086322 1.517323 -0.6040452 -1.741446 -0.8042499 -1.167326 -0.8357705 -0.6615857 -1.059805 -1.837072 -1.221449 -0.8390124 -1.171942 -1.023383 -1.535447 -2.085116 6.210684 -5.506798 1 -152
3.335936 1.215007 0.2141017 1.055281 -0.1492761 0.1995449 0.3005852 -1.668751 2.823385 -1.177771 1.526676 -1.438172 1.463655 2.433636 0.03175564 0.8226793 -0.4911467 0.7976301 -0.7272464 1.907081 0.3008021 1.098284 -1.133201 0.5389984 -0.3045416 2.304589 -0.5011789 -1.945892 -0.7615204 -1.424563 -0.4227936 -0.8313143 -0.908528 -2.032516 -1.084088 -1.159887 -0.999587 -1.109919 -1.415686 -2.262405 6.932557 -5.352246 1 -148
2.617506 1.16327 0.1609174 0.9964419 -0.3757551 -0.2785852 0.1601589 -2.027498 3.254302 -1.379562 1.753979 -1.282855 1.759207 2.456269 -0.1129139 0.7581503 -0.7254038 0.8326849 -0.7350603 2.542049 0.2417751 1.16657 -1.53525 0.9397539 -0.6076231 3.226141 -0.3330956 -2.102104 -0.5644599 -1.792323 0.1617411 -0.9072835 -0.669196 -2.109671 -0.8765724 -1.472608 -0.7420297 -1.13586 -1.145658 -2.120506 7.654727 -6.813849 1 -144
1.970516 1.164248 0.1165679 1.009997 -0.580336 -0.7858507 -0.06545597 -2.140817 3.345127 -1.547866 1.983354 -1.2102 2.060611 2.515493 -0.2182524 0.7430101 -0.9588664 0.9401787 -0.9560909 3.241903 0.1749409 1.347123 -1.958843 1.372348 -1.297461 3.654849 -0.1071754 -2.166125 -0.206308 -2.392628 0.7004349 -1.051861 -0.3912609 -2.02637 -0.5913472 -1.748682 -0.4483361 -1.111191 -0.7782374 -1.634884 7.919121 -7.88536 1 -140
1.511931 1.167776 0.1779377 1.019643 -0.651882 -1.119139 -0.2093759 -2.202596 3.196251 -1.887855 2.254366 -1.302368 2.359076 2.487244 -0.3564606 0.7405414 -1.236351 1.098045 -1.51235 4.242328 0.1033772 1.470361 -2.477995 1.804633 -2.318884 3.623718 0.1101625 -2.234295 0.1954174 -3.200208 1.093678 -1.374392 -0.09172742 -1.913443 -0.2551357 -2.128614 -0.1384156 -1.023159 -0.3529869 -1.111751 7.82605 -7.383241 1 -136
1.329794 1.079448 0.2703848 0.9282833 -0.5968872 -1.188931 -0.1686566 -2.391196 2.98626 -2.277739 2.48772 -1.671706 2.576294 2.231838 -0.5281928 0.664995 -1.521866 1.199357 -2.143466 5.322383 -0.03891344 1.387526 -2.956795 2.20324 -3.07053 3.454017 0.2204696 -2.372483 0.5028697 -3.839658 1.351893 -1.695793 0.2589726 -1.845686 0.08813506 -2.607559 0.1975789 -0.8016096 0.09713791 -0.7600729 7.595856 -5.956749 1 -132
1.668041 0.8731432 0.2507895 0.7270833 -0.4893973 -1.090233 0.06014739 -2.587182 2.725026 -2.548695 2.515073 -1.910978 2.56519 1.783498 -0.6694133 0.5450181 -1.79688 1.164771 -2.436014 5.885192 -0.2967136 1.169644 -3.220314 2.473966 -3.243762 3.20892 0.1675906 -2.528761 0.6515322 -4.071471 1.523504 -1.809525 0.635572 -1.758526 0.4222531 -2.982831 0.5345685 -0.4761785 0.5034108 -0.4792182 7.13313 -4.790943 1 -128
2.525101 0.6607406 0.1197325 0.5311078 -0.4151737 -0.9698873 0.3266304 -2.669802 2.40183 -2.681437 2.372525 -1.747656 2.391828 1.305959 -0.8133633 0.4805354 -2.113358 1.041078 -2.417304 5.746203 -0.5999386 0.9987913 -3.297232 2.568529 -3.194334 2.934745 0.009357864 -2.649149 0.6795675 -4.099836 1.639483 -1.798145 0.9408045 -1.611526 0.730994 -3.144722 0.8249201 -0.2230835 0.7956917 -0.1231858 6.397254 -3.854266 1 -124
3.194791 0.5412334 -0.159356 0.4371075 -0.3944429 -1.051002 0.5000304 -2.733091 2.069077 -2.70829 2.179528 -1.546188 2.198423 0.9425187 -0.9759383 0.5070195 -2.443424 0.9620861 -2.420894 5.286172 -0.8323093 0.9417688 -3.336633 2.553858 -3.290642 2.998863 -0.0984584 -2.679876 0.7324919 -4.145379 1.785622 -1.778601 1.189406 -1.41134 1.035346 -3.141206 1.119147 -0.09060576 1.036669 0.338037 5.705876 -3.01743 1 -120
3.013784 0.3818176 -0.4950454 0.303503 -0.3717676 -1.296802 0.6407413 -2.786689 1.741516 -2.680107 1.810604 -1.678397 1.862427 0.6811241 -1.074831 0.5386838 -2.649431 0.9506869 -2.72346 4.655383 -0.9355634 0.8840213 -3.466113 2.475094 -3.623313 3.332527 -0.0723639 -2.55824 0.8750104 -4.145063 1.992758 -1.726516 1.458785 -1.166259 1.362807 -2.958432 1.454775 0.1425507 1.33971 0.8663256 5.110283 -1.466515 1 -116
2.351029 0.1097832 -0.7272487 0.04873353 -0.3697611 -1.425009 0.7356803 -2.577847 1.348031 -2.704178 1.196118 -2.087066 1.29212 0.4117155 -1.101666 0.4213836 -2.701846 0.8879694 -3.35396 3.728519 -0.9386596 0.7233549 -3.709071 2.297594 -4.085361 3.374456 0.02873954 -2.317171 1.014902 -3.96627 2.164154 -1.608655 1.707895 -0.887899 1.663641 -2.541581 1.732593 0.6560348 1.681578 1.351611 4.189157 1.986443 1 -112
1.788098 -0.1723126 -0.9119453 -0.2232301 -0.5525617 -1.429213 0.4997429 -2.202566 0.8881321 -2.859019 0.6381882 -2.701007 0.7517123 0.09610955 -1.174939 0.1044552 -2.746965 0.7531978 -4.089556 2.748821 -0.8972337 0.5351012 -3.933824 2.09219 -4.385453 3.048579 0.1920487 -2.017788 1.143715 -3.624677 2.267244 -1.422374 1.891008 -0.5139713 1.884624 -1.979635 1.918446 1.351877 1.988994 1.771971 3.047978 6.435997 1 -108
1.166231 -0.4326328 -1.130955 -0.4735395 -1.005853 -1.423831 -0.1893444 -2.06773 0.4776971 -3.001886 0.3118476 -3.418875 0.3921461 -0.2169228 -1.351877 -0.3010884 -2.841833 0.6349739 -4.551526 2.040855 -0.8076141 0.472431 -3.908324 1.98354 -4.243536 2.642089 0.4826876 -1.636374 1.377753 -3.163509 2.296714 -1.087747 2.044025 0.03975475 2.040915 -1.352344 2.096717 2.039682 2.257372 2.292779 2.224427 9.292707 1 -104
0.5426646 -0.597638 -1.297531 -0.6200177 -1.497962 -1.352664 -0.9364576 -2.040473 0.1106171 -2.931179 0.08987284 -3.732086 0.1174763 -0.4645406 -1.515293 -0.6339396 -2.86803 0.5580145 -4.425095 1.539587 -0.6753401 0.5506534 -3.545934 1.871368 -3.703507 2.053675 0.84219 -1.197481 1.679718 -2.591671 2.080566 -0.5743589 2.108607 0.6297683 2.114545 -0.6760393 2.198716 2.562409 2.427236 2.905188 1.559669 9.334588 1 -100
0.2338021 -0.6389623 -1.350741 -0.6374554 -1.744705 -1.31718 -1.346564 -1.79506 -0.2538705 -2.733528 -0.06765854 -3.280995 -0.05928728 -0.6025565 -1.531168 -0.8483216 -2.717926 0.4860544 -3.808995 0.8578274 -0.5557838 0.5966541 -3.031421 1.59564 -3.075555 1.187672 1.142891 -0.807416 1.868544 -1.975889 1.596285 -0.0465345 2.072737 1.01204 2.103931 -0.08214135 2.145779 2.864758 2.462463 3.323438 0.7633892 7.995798 1 -96
-0.1268815 -0.7609687 -1.310389 -0.7477901 -1.775796 -1.507247 -1.500513 -1.417944 -0.5198866 -2.536337 -0.2032464 -2.268392 -0.1973102 -0.6268766 -1.384122 -0.9984049 -2.351749 0.4296779 -2.97044 -0.3495563 -0.4310223 0.5077949 -2.527131 1.204124 -2.552831 0.477211 1.355255 -0.453976 1.91233 -1.327861 1.170568 0.4495961 2.104487 1.236619 2.118599 0.386126 2.10404 3.091277 2.508177 3.46094 0.07432988 6.255531 1 -92
-0.8816257 -1.058655 -1.120529 -1.05686 -1.752552 -1.761611 -1.630973 -1.126549 -0.6544434 -2.320307 -0.2856313 -1.223523 -0.2966267 -0.6316829 -1.165451 -1.093891 -1.893767 0.4273583 -2.080098 -1.622076 -0.2965865 0.3593885 -2.036808 0.828298 -2.060795 0.2076897 1.430538 -0.06359799 1.870924 -0.5921877 0.9397528 1.020875 2.196993 1.487038 2.164753 0.9001775 2.138604 3.318021 2.604775 3.470976 -0.3657095 3.706436 1 -88
-1.807365 -1.335702 -0.8890288 -1.351807 -1.704599 -1.818706 -1.742278 -1.153821 -0.705179 -2.191738 -0.09842673 -0.8279314 -0.1269833 -0.6907874 -0.9831874 -1.104467 -1.607867 0.4357892 -1.493509 -1.971532 -0.2390319 0.2421548 -1.597715 0.5875368 -1.516934 0.1735559 1.310462 0.275372 1.746437 0.05363844 0.7611637 1.465069 2.173184 1.701337 2.097282 1.388522 2.087909 3.313253 2.579845 3.377782 -0.4317868 1.620066 1 -84
-2.408283 -1.383597 -0.8335071 -1.401241 -1.537191 -1.697456 -1.606279 -1.462794 -0.680593 -2.115353 0.2402394 -1.070375 0.2039612 -0.7169614 -0.7885761 -0.9683872 -1.506173 0.4099433 -1.306295 -1.202858 -0.2393334 0.183805 -1.254571 0.5408947 -1.036193 0.2285137 1.055667 0.4225993 1.554311 0.2966395 0.6146023 1.47768 1.975567 1.674567 1.859906 1.481348 1.882701 2.882523 2.326045 3.095726 -0.05614452 0.864939 1 -80
-2.250813 -1.188321 -0.8866699 -1.194293 -1.186424 -1.506272 -1.07669 -1.580398 -0.592039 -1.779697 0.3466216 -1.139643 0.3262506 -0.6607466 -0.4587345 -0.6888527 -1.317741 0.3658706 -1.043736 -0.02104931 -0.1939716 0.1013998 -0.9736021 0.5589584 -0.6666121 0.3991404 0.7249321 0.3954749 1.265835 0.2159283 0.4994435 1.209911 1.639271 1.352211 1.531683 1.170432 1.577458 2.182977 1.888563 2.571948 0.2974598 -0.2154717 1 -76
-1.571705 -0.8660854 -0.9017506 -0.8503808 -0.7069738 -1.124223 -0.3600359 -1.276477 -0.5485608 -1.044504 0.1401801 -0.8878842 0.1581959 -0.5702922 -0.01296346 -0.4042981 -0.8550485 0.2813675 -0.5532699 0.8150074 -0.09402265 -0.08441857 -0.6925202 0.4495506 -0.3054895 0.5728528 0.3554674 0.323682 0.8370752 0.1543363 0.343717 0.9806309 1.264483 0.8975376 1.208669 0.8282465 1.244297 1.499987 1.423126 1.863061 0.2046693 -2.135226 1 -72
-0.8792828 -0.5479926 -0.8395423 -0.4911878 -0.1779351 -0.3942856 0.2070861 -0.7430307 -0.7416909 -0.07054467 -0.2046125 -0.827774 -0.1582486 -0.4238777 0.4494473 -0.1644895 -0.2052948 0.1416616 -0.2588307 0.8502161 -0.01031584 -0.2815625 -0.3817983 0.127285 -0.01962128 0.3059742 0.0580516 0.3032262 0.3570115 0.1893147 0.05364212 0.754382 0.86906 0.5218983 0.8535072 0.6389246 0.8636156 0.9504473 1.001384 1.156373 -0.3375422 -2.493071 1 -68
-0.08272287 -0.3292294 -0.6110043 -0.2328526 0.2985075 0.5307689 0.5087724 -0.1585858 -1.123796 0.7281905 -0.4987688 -0.9092736 -0.4548795 -0.2279927 0.775842 0.08305061 0.3228551 0.01013147 -0.2972509 0.1851374 0.0161964 -0.3580537 -0.07279668 -0.3357938 0.08505058 -0.5836059 -0.1000829 0.3487803 -0.04586738 0.2350642 -0.4358209 0.4210733 0.3508324 0.3167817 0.3773114 0.5938401 0.3548764 0.4754698 0.5314308 0.6022068 -1.124865 -0.168963 1 -64
0.8602878 -0.2176222 -0.2455874 -0.1140604 0.5568976 1.269828 0.584554 0.3051731 -1.290959 0.9447889 -0.6536072 -0.6162471 -0.6404169 -0.09105358 0.7976118 0.2720084 0.5342827 -0.08838698 -0.247388 -0.647664 0.0236836 -0.3076158 0.2207854 -0.704289 0.1097767 -1.39015 -0.1420067 0.4430493 -0.2952478 0.3279904 -0.9046606 0.1855933 -0.1215295 0.238887 -0.05869181 0.6952431 -0.113399 0.02948136 0.08296973 0.2345391 -1.639617 1.812849 1 -60
1.291203 -0.08934231 -0.01475599 -0.001653541 0.5452664 1.477038 0.4465758 0.5473135 -1.006618 0.6617703 -0.8035395 0.1315579 -0.8264618 -0.06414277 0.5837368 0.2988709 0.5697562 -0.2078551 0.09304803 -1.380172 0.04329279 -0.2432277 0.4925251 -0.8192211 0.1555563 -1.422078 -0.1078067 0.5118566 -0.376312 0.5029043 -0.9976212 0.1644932 -0.2585916 0.1527671 -0.2078944 0.8115702 -0.269329 -0.3291191 -0.1523706 -0.02595543 -1.559934 1.68291 1 -56
0.9299734 0.2114591 -0.01084701 0.2774521 0.4413903 1.199374 0.2204798 0.7014337 -0.4908052 0.3575452 -0.9991402 0.8659849 -1.050702 -0.1109198 0.3901638 0.2030377 0.6520157 -0.3139212 0.5571662 -1.804287 0.05646664 -0.2655733 0.723485 -0.6988225 0.2982045 -0.7151937 -0.124051 0.4411971 -0.3504467 0.6611913 -0.6141248 0.1907495 -0.1169867 -0.05653994 -0.0979405 0.6721807 -0.1523448 -0.59186 -0.1728918 -0.3638444 -1.236294 0.2865587 1 -52
0.3081826 0.6072908 0.06006938 0.6405942 0.4028802 0.9128744 0.0667583 0.8466488 -0.02050446 0.3183872 -0.9669763 1.274541 -1.029456 -0.2023489 0.3246298 0.09129176 0.7995862 -0.3067676 1.061677 -1.626834 0.01942211 -0.3428531 0.9389425 -0.4401771 0.6375304 0.2065968 -0.3279713 0.230172 -0.3146003 0.6923247 -0.02330277 0.1429096 0.02668986 -0.3775438 0.02559552 0.2431029 -0.02180383 -0.9072112 -0.1500116 -0.8641733 -0.987739 -1.968335 1 -48
-0.09269853 0.8451832 0.4620019 0.8301687 0.4440655 0.9911905 0.004942428 1.009454 0.327412 0.510846 -0.6646123 1.426843 -0.7087706 -0.2772289 0.3301541 0.0519242 0.9006855 -0.2085715 1.501244 -1.119406 -0.101205 -0.3698694 1.151899 -0.2223075 1.12556 0.6403627 -0.6631657 -0.002400637 -0.358509 0.6137788 0.3263966 -0.01467341 -0.09011775 -0.7103151 -0.0922292 -0.1870663 -0.1190176 -1.385045 -0.3189654 -1.378645 -0.8483894 -3.560875 1 -44
0.01025087 0.8951458 1.059025 0.8336775 0.6160719 1.315407 0.1283226 1.344488 0.539401 0.9046354 -0.3985023 1.559225 -0.4229994 -0.2093564 0.379109 0.1574111 0.9577416 -0.08977204 1.908591 -0.6546664 -0.233347 -0.2999674 1.378483 -0.1473607 1.642354 0.4575677 -0.9588193 -0.1394476 -0.4924145 0.5598795 0.2637182 -0.1839883 -0.5464267 -0.9633577 -0.512718 -0.4272071 -0.5189032 -1.89789 -0.7632559 -1.762488 -0.8770899 -4.410473 1 -40
0.6107469 0.9241781 1.557091 0.8414817 0.9333264 1.502397 0.5028039 1.847847 0.5795478 1.528871 -0.2223241 1.865212 -0.24884 0.02510604 0.4729355 0.3791948 1.128648 0.03490835 2.463107 -0.1049024 -0.2309526 -0.1873993 1.667273 -0.1534537 2.102917 -0.01007105 -1.104121 -0.1345264 -0.6760212 0.6118872 -0.1009138 -0.2443529 -1.182189 -1.122076 -1.078981 -0.5907449 -1.092989 -2.245439 -1.336008 -2.082263 -1.087397 -6.343557 1 -36
1.182278 0.9271255 1.724457 0.8492718 1.193316 1.333205 0.9412586 1.992199 0.5601988 2.060816 0.05191515 2.013598 0.03064929 0.2797704 0.5301225 0.5512331 1.377621 0.1236765 2.783094 0.749181 -0.06562838 -0.1125665 1.864149 -0.1284316 2.290499 -0.3938395 -1.058675 -0.08531936 -0.8903439 0.6678156 -0.5215944 -0.342462 -1.733899 -1.224247 -1.575946 -0.8239688 -1.607018 -2.383151 -1.843969 -2.449471 -1.028736 -7.808178 1 -32
1.396692 0.8189876 1.404915 0.7569442 1.185889 0.8701044 1.216005 1.336653 0.6879106 1.975361 0.4686393 1.580136 0.4817525 0.433965 0.4743539 0.5517109 1.402346 0.106822 2.30132 1.772104 0.1206735 -0.07686637 1.667058 -0.04393355 1.92901 -0.249439 -0.8721638 -0.1706859 -1.074794 0.5235064 -0.653465 -0.6687005 -1.95423 -1.304692 -1.819693 -1.101607 -1.833665 -2.416494 -2.128986 -2.800599 -0.1621662 -6.130678 1 -28
1.263723 0.6816687 0.8630888 0.6335483 0.9997637 0.3525673 1.254617 0.422762 0.8934647 1.501029 0.9022331 0.9633446 0.9333679 0.5609087 0.4017343 0.5189676 1.197603 0.01024602 1.398217 2.396885 0.2381413 0.006855919 1.206193 -0.01768147 1.163462 0.1965038 -0.6589888 -0.3472191 -1.132517 0.1401363 -0.4930318 -1.078254 -1.822081 -1.336065 -1.772007 -1.299988 -1.745083 -2.43403 -2.15237 -2.92431 1.06606 -2.953377 1 -24
0.5986314 0.5985708 0.5550097 0.559864 0.883794 -0.001975829 1.149038 -0.0951082 1.013133 1.281308 1.184527 0.5550452 1.191998 0.7813098 0.4210759 0.6497549 1.046189 -0.08883176 0.8106411 2.359298 0.3290858 0.1531061 0.926387 -0.1165182 0.5741965 0.3494186 -0.4869817 -0.400255 -1.087895 -0.1900331 -0.3659653 -1.253079 -1.590032 -1.231384 -1.619224 -1.296717 -1.570345 -2.364855 -2.055611 -2.72687 1.950848 -1.38059 1 -20
-0.1996828 0.6060798 0.5595182 0.5795707 0.9355299 -0.0633809 1.051085 -0.1037813 1.037209 1.382986 1.195818 0.3568768 1.19768 1.034947 0.477502 0.856921 1.041414 -0.2142273 0.6638051 1.911338 0.4405363 0.2279593 0.8972687 -0.3391925 0.4790835 0.0868854 -0.4074677 -0.29182 -1.141579 -0.2131285 -0.4803954 -1.155025 -1.579945 -1.029034 -1.646288 -1.105449 -1.608532 -2.108389 -2.059601 -2.423804 2.228774 -1.078121 1 -16
-0.1927767 0.6979632 0.7023427 0.6888463 1.03236 0.1625169 0.9636765 0.4186294 0.9927951 1.511973 0.9162713 0.7469998 0.9498139 1.175141 0.4651054 0.9252807 1.131717 -0.4397691 0.8456938 1.003081 0.5801306 0.1353549 0.9169678 -0.7398773 0.6435677 -0.4719917 -0.4421704 -0.1170003 -1.407829 -0.06461306 -0.7890649 -1.021315 -1.819204 -0.8706391 -1.880501 -0.9174529 -1.86118 -1.730595 -2.195645 -2.264027 1.755792 -0.1364026 1 -12
0.4914456 0.7078046 0.7633164 0.7099518 0.9649575 0.388216 0.7147588 1.046504 0.9623134 1.327594 0.4682081 1.556358 0.5195474 1.161988 0.3559461 0.7784122 1.187158 -0.7732857 1.072828 -0.3864135 0.6983632 -0.04365954 0.9526228 -1.255562 0.7910745 -1.009495 -0.4816759 0.09696855 -1.706791 0.1150394 -1.080131 -0.9798759 -2.003383 -0.691753 -2.060776 -0.7828871 -2.049069 -1.362635 -2.283501 -2.159498 1.030773 2.248307 1 -8
0.7739567 0.4926591 0.6010473 0.4982271 0.6501226 0.2395139 0.2390586 1.134916 0.9249449 0.7270881 0.06252115 1.888401 0.1102886 1.118227 0.2100264 0.5359809 1.073979 -1.090134 1.024474 -1.548244 0.8005486 -0.0914943 1.110258 -1.601032 0.9096963 -1.297756 -0.3393049 0.4187658 -1.741015 0.3940084 -1.189762 -0.9003443 -1.963294 -0.3038047 -2.032894 -0.518446 -2.035318 -1.013892 -2.222829 -1.836229 0.8116459 4.975336 1 -4
0.4053111 0.1714286 0.3944656 0.1768545 0.2431587 -0.2290476 -0.2394235 0.7529508 0.7619247 0.1122281 -0.2631038 1.513327 -0.1991629 1.185881 0.08156189 0.4068794 0.8817826 -1.211872 0.8587508 -1.838538 0.980799 0.1051733 1.427096 -1.5703 1.093219 -1.410248 0.01621851 0.8637049 -1.442742 0.7182115 -1.107711 -0.6692547 -1.83128 0.2046917 -1.871125 -0.1573398 -1.906635 -0.6707209 -2.077829 -1.294436 1.060382 5.574811 1 0
0.4076367 0.08449318 0.5009978 0.07576957 0.05448151 -0.4573903 -0.4211684 0.4935257 0.5727701 -0.1006673 -0.5745417 0.9578691 -0.4533045 1.317497 0.03367738 0.4310016 0.8333862 -1.147896 0.9292913 -1.418081 1.182998 0.3403741 1.800137 -1.330937 1.388487 -1.271199 0.3373663 1.253458 -1.104347 0.919593 -0.9531647 -0.4035235 -1.893352 0.521467 -1.832359 -0.002729394 -1.917025 -0.4449166 -2.065365 -0.9042627 1.239447 3.020469 1 4
1.146597 0.3016419 0.8721806 0.2707112 0.1801981 -0.2277886 -0.3328742 0.5895556 0.5318561 0.1060198 -0.7681137 0.7514963 -0.5850213 1.395498 0.1694872 0.4702826 1.003247 -1.065646 1.328441 -0.8023756 1.246161 0.3434972 2.072636 -1.194711 1.775198 -0.8938587 0.4220314 1.419186 -0.9939733 0.9553046 -0.8296217 -0.241953 -2.194977 0.5565424 -2.043923 -0.1475215 -2.165426 -0.4070249 -2.260351 -0.889378 1.172053 -1.035274 1 8
1.706513 0.4832146 1.179641 0.4338586 0.3577603 0.04090218 -0.2603354 0.8149232 0.5440398 0.4641375 -0.7464345 0.8168669 -0.548924 1.445429 0.4738034 0.4609881 1.24586 -1.031409 1.824861 -0.3390774 1.202742 0.178634 2.209771 -1.240826 2.249791 -0.7298194 0.3844067 1.4141 -1.014547 0.9259813 -0.7698143 -0.1628826 -2.436813 0.5176886 -2.268487 -0.3872943 -2.403122 -0.4539448 -2.417081 -0.9990168 1.023422 -4.189493 1 12
1.707883 0.4461496 1.452676 0.3727581 0.4051272 0.09632757 -0.2765223 1.043867 0.3915787 0.7425523 -0.6299515 0.8912973 -0.4484961 1.588433 0.8078842 0.4996751 1.455922 -0.9680838 2.207377 -0.1035606 1.258023 0.1470435 2.33583 -1.330383 2.656555 -1.067136 0.4361002 1.394741 -0.9514372 0.9107529 -0.8388835 -0.09022114 -2.560396 0.5845127 -2.384886 -0.532353 -2.520367 -0.4789361 -2.451214 -0.9190208 0.8443876 -6.125617 1 16
1.539321 0.2508299 1.732002 0.1557872 0.3932038 0.03464859 -0.252243 1.207274 0.1233853 0.8981603 -0.6675647 0.9598713 -0.49171 1.879684 1.055879 0.6611957 1.641868 -0.8279627 2.369124 -0.02727249 1.526214 0.3545747 2.49016 -1.401147 2.727504 -1.748905 0.6325796 1.438781 -0.7817544 0.8717237 -1.095275 -0.04555376 -2.737062 0.7660156 -2.532631 -0.5137674 -2.639028 -0.4565317 -2.518437 -0.6446579 0.777827 -7.106108 1 20
1.506619 0.09851254 1.803913 0.003151059 0.4344105 -0.008571765 -0.1288344 1.249344 -0.06993671 0.917679 -0.8819508 0.7577153 -0.7012686 2.206463 1.171021 0.8662594 1.73971 -0.6914944 2.079517 -0.005388043 1.866067 0.5914191 2.483103 -1.532842 2.447806 -2.469398 0.8495655 1.46649 -0.6530892 0.7728529 -1.482693 -0.1405674 -2.965441 0.8934298 -2.751226 -0.4114303 -2.824932 -0.4067239 -2.656753 -0.4157235 0.9108405 -5.917676 1 24
1.746579 0.2219956 1.671883 0.1407025 0.5698921 0.03932054 -0.04670777 1.34758 -0.2089464 0.8608395 -1.024326 0.2839613 -0.8423132 2.376665 1.197978 0.9823436 1.729801 -0.6827582 1.394747 -0.009463903 2.072408 0.60838 2.1842 -1.76051 1.986562 -3.003922 0.9231586 1.372651 -0.6993968 0.6842266 -1.830194 -0.3968519 -3.186888 0.8090889 -2.979138 -0.3819479 -3.051582 -0.3696083 -2.81621 -0.4348015 0.8712372 -2.350792 1 28
2.042303 0.5126619 1.413198 0.4462341 0.671702 0.09688363 -0.2095421 1.497973 -0.4034807 0.8097675 -1.016562 0.03080238 -0.8485525 2.341316 1.182703 0.9553459 1.643754 -0.8301493 0.7689888 -0.2179493 2.145188 0.4269044 1.744576 -2.037618 1.570985 -3.310621 0.8688665 1.188601 -0.8628693 0.7261038 -1.995576 -0.6416682 -3.313402 0.6573166 -3.114263 -0.3919232 -3.17309 -0.328128 -2.923085 -0.5503649 0.5196855 1.906987 1 32
2.079436 0.7354502 1.019522 0.6803664 0.6007798 0.07755838 -0.4901237 1.458593 -0.6159556 0.656445 -0.9730879 0.08791149 -0.8190407 2.268774 1.091378 0.8625508 1.408379 -1.02039 0.4565048 -0.7057478 2.182307 0.3260536 1.355623 -2.261337 1.34434 -3.288428 0.8625084 0.9995834 -0.9398563 0.8828365 -1.976243 -0.6731656 -3.248645 0.6376261 -3.057847 -0.2827067 -3.079507 -0.2470316 -2.873989 -0.4259412 0.2743906 4.630075 1 36
1.97641 0.8649027 0.66303 0.8164392 0.4623527 -0.0338134 -0.6268734 1.273547 -0.6942891 0.3389936 -0.9750753 0.1493739 -0.7930784 2.327844 0.9188482 0.8100145 1.057811 -1.142349 0.3094412 -1.134306 2.215482 0.4455534 1.036258 -2.361161 1.161458 -2.879186 0.9635906 0.8349718 -0.8533617 0.9903497 -1.865542 -0.5207824 -3.076891 0.7004622 -2.879074 -0.05008577 -2.896948 -0.1573684 -2.694909 -0.07682685 0.397668 4.997152 1 40
1.870291 0.8980913 0.4527957 0.8559733 0.3889849 -0.2676582 -0.6852444 1.032194 -0.5248529 -0.06128168 -1.081828 -0.002293587 -0.836744 2.466315 0.6790843 0.763476 0.772605 -1.233804 0.08607528 -1.137271 2.230784 0.6302034 0.7498427 -2.382951 0.9303785 -2.301685 1.098019 0.7001468 -0.7289994 1.032425 -1.740911 -0.35444 -2.910758 0.7407507 -2.716718 0.2039298 -2.754375 -0.04837405 -2.515499 0.1853411 0.8862978 4.631663 1 44
1.495841 0.8134437 0.2844332 0.774974 0.3386337 -0.5398589 -0.7859021 0.626905 -0.1355537 -0.4839226 -1.229526 -0.2972512 -0.9490752 2.570695 0.4003637 0.6368527 0.6126724 -1.358731 -0.1778662 -0.7686922 2.240026 0.7249164 0.5117391 -2.36148 0.8299347 -1.795311 1.253109 0.6051528 -0.6739797 1.09183 -1.611056 -0.2258834 -2.726879 0.7329891 -2.592972 0.3964578 -2.619308 0.1368791 -2.396357 0.2093657 1.730136 4.712229 1 48
0.8633677 0.7368295 0.09368172 0.6852936 0.2484373 -0.6874991 -0.796772 0.06788635 0.4027494 -0.8401359 -1.117428 -0.5530085 -0.8570911 2.632867 0.1694079 0.4768774 0.4570678 -1.480114 -0.3009575 -0.1787524 2.213573 0.7241994 0.3243902 -2.271885 0.9448957 -1.317288 1.395679 0.4472026 -0.6939535 1.022698 -1.437144 -0.205517 -2.482792 0.601523 -2.456732 0.3491494 -2.46172 0.2039131 -2.335593 0.005593668 2.861953 4.545171 1 52
0.43346 0.821839 -0.1428811 0.7450979 0.132502 -0.7134407 -0.6506087 -0.507921 0.9542911 -1.060034 -0.6337155 -0.8159664 -0.4204958 2.667691 0.01262125 0.4221466 0.1810203 -1.546645 -0.3335031 0.492043 2.060128 0.7140332 0.1735254 -2.12411 1.128915 -0.6521124 1.431653 0.1382462 -0.7473686 0.7182932 -1.180731 -0.3893487 -2.208815 0.301056 -2.287978 -0.0176761 -2.283869 -0.1114517 -2.304591 -0.302383 4.052183 3.855006 1 56
0.4128137 1.019566 -0.313765 0.9246531 0.09537422 -0.6431002 -0.5117391 -0.8184429 1.17349 -1.079453 -0.1812261 -1.098332 -0.001170299 2.716939 -0.07233039 0.5388092 -0.1181031 -1.559631 -0.4680967 0.6932077 1.833337 0.76714 0.05978491 -2.025931 1.161353 -0.151186 1.382332 -0.1792655 -0.7850782 0.3574074 -0.9664705 -0.7210317 -2.04651 -0.05014423 -2.16323 -0.4541856 -2.136527 -0.6361372 -2.299069 -0.494225 4.699426 4.138699 1 60
0.7870973 1.22132 -0.1738284 1.116565 0.2629256 -0.3488933 -0.4720561 -0.6089807 0.9173952 -0.8021781 -0.04530381 -1.191592 0.1398575 2.792326 -0.05364176 0.7418879 -0.2481213 -1.56394 -0.7341802 0.1548613 1.65041 0.7981085 -0.06752264 -2.090557 0.9668801 -0.4254856 1.311996 -0.3999893 -0.869797 0.09085937 -1.070207 -1.129216 -2.174942 -0.3463152 -2.219851 -0.783629 -2.178889 -1.034113 -2.410969 -0.5824093 4.323927 6.750293 1 64
1.515319 1.431219 0.2529189 1.313356 0.6037728 0.1660428 -0.3997836 -0.07726639 0.6212503 -0.3075223 -0.08938017 -1.023943 0.1277144 2.808954 0.05792388 0.8712237 -0.2197756 -1.583243 -0.9494269 -0.3917853 1.509957 0.7080111 -0.2776756 -2.208427 0.7021596 -1.114442 1.216095 -0.5971231 -1.068198 -0.1137758 -1.470393 -1.551219 -2.569283 -0.6116463 -2.487905 -1.109607 -2.480338 -1.250212 -2.69132 -0.7623841 3.414631 10.0855 1 68
2.333666 1.590236 0.725555 1.441576 0.9152558 0.6142842 -0.1804101 0.3702374 0.6903561 0.1476827 -0.1114425 -0.8458098 0.143554 2.734835 0.1918866 0.8574455 -0.2225166 -1.554941 -1.070241 -0.09141617 1.378555 0.6068854 -0.6050352 -2.132439 0.4166823 -1.411325 1.100592 -0.8291333 -1.240056 -0.411417 -1.741841 -1.922017 -2.933531 -0.8954149 -2.766104 -1.544134 -2.821241 -1.406854 -2.978729 -1.019081 2.861254 11.61457 1 72
2.94093 1.639936 1.067629 1.446511 1.032099 0.7290514 0.06887767 0.5118193 0.9476109 0.3468803 0.1479851 -0.9174817 0.4334328 2.631618 0.2224793 0.8007572 -0.437273 -1.420093 -1.289019 1.154195 1.213359 0.6400774 -1.07979 -1.78338 -0.016427 -1.323256 1.014431 -1.107952 -1.225879 -0.9093888 -1.669636 -2.254869 -3.025873 -1.185241 -2.820057 -2.043674 -2.937882 -1.607878 -3.084017 -1.164223 2.899072 11.41453 1 76
3.325809 1.705982 1.178978 1.486415 1.005685 0.6183935 0.1766879 0.4692382 1.08005 0.3051968 0.6662465 -0.9707393 0.9509469 2.542956 0.09779719 0.7874639 -0.8141261 -1.228745 -1.502093 2.662569 0.9871601 0.7601796 -1.590927 -1.336034 -0.4577456 -1.435432 0.9876545 -1.424227 -1.100555 -1.472497 -1.475708 -2.518863 -2.922571 -1.454921 -2.69839 -2.44247 -2.856626 -1.842499 -3.047074 -1.146866 3.101967 10.84176 1 80
3.654668 1.939776 1.170332 1.714825 1.042379 0.5642166 0.1367216 0.6020589 1.107055 0.2351026 1.043445 -0.6588923 1.27712 2.451742 -0.08772468 0.7423162 -1.08438 -1.084976 -1.452158 3.577178 0.731831 0.7903401 -1.905943 -1.051884 -0.6594293 -1.755465 0.9271376 -1.757257 -1.063106 -1.88264 -1.326873 -2.67202 -2.823296 -1.738511 -2.598001 -2.694515 -2.757198 -2.037614 -2.997433 -1.11174 2.992232 10.50059 1 84
3.858813 2.316025 1.164895 2.080299 1.18424 0.5560179 0.02320593 0.8373922 1.229409 0.1880518 1.203896 -0.3139311 1.348699 2.332463 -0.2650123 0.5955822 -1.145505 -1.006179 -1.377503 3.765382 0.4868232 0.6474097 -2.03063 -0.9565008 -0.8086644 -1.672348 0.7426805 -2.096338 -1.170331 -2.091428 -1.121244 -2.76876 -2.738415 -2.039695 -2.533376 -2.898282 -2.675438 -2.119447 -2.914751 -1.159506 2.723264 10.61879 1 88
3.540904 2.632969 0.9880211 2.388209 1.201833 0.431646 -0.1561535 0.6677196 1.515765 0.02266914 1.355956 -0.2796048 1.40839 2.226159 -0.4305674 0.4108123 -1.160431 -0.8932598 -1.544696 3.661471 0.302049 0.4796744 -2.151275 -0.8619515 -1.12883 -1.117131 0.5652406 -2.381858 -1.289659 -2.185118 -0.7726002 -2.806355 -2.498709 -2.242854 -2.368455 -3.039158 -2.488236 -2.019297 -2.70397 -1.182536 2.938422 10.96479 1 92
2.510768 2.790425 0.6101976 2.549505 0.9956095 0.1436116 -0.4049257 0.01869841 1.852656 -0.2606346 1.647376 -0.4170209 1.641708 2.20287 -0.5741616 0.3325373 -1.264607 -0.6535234 -1.723557 3.608372 0.1854647 0.4635702 -2.296307 -0.6627925 -1.383945 -0.5675283 0.4997166 -2.549535 -1.305618 -2.223141 -0.4018051 -2.697234 -2.098655 -2.271532 -2.089901 -3.02668 -2.169926 -1.815937 -2.4325 -1.049181 3.819107 10.46849 1 96
1.21977 2.858227 0.3348176 2.625018 0.7578486 -0.3104145 -0.6291721 -0.7188739 2.158084 -0.4930848 2.125567 -0.5533344 2.11987 2.27927 -0.6850613 0.4723313 -1.422726 -0.27761 -1.645891 3.748875 0.09295628 0.5691746 -2.384185 -0.3569337 -1.363268 -0.211931 0.4502418 -2.641616 -1.235201 -2.212546 -0.1403079 -2.397326 -1.73662 -2.200071 -1.824694 -2.832463 -1.868002 -1.649283 -2.237262 -0.8010368 4.953875 8.063014 1 100
0.4783982 2.88405 0.2830055 2.658187 0.6362251 -0.7929242 -0.7161551 -1.313903 2.445774 -0.6166922 2.559622 -0.8454524 2.604032 2.365226 -0.7987608 0.7496279 -1.560143 0.1318949 -1.542948 3.947851 0.01718712 0.651866 -2.448298 -0.03932615 -1.243446 0.0682605 0.3576856 -2.789976 -1.162179 -2.214086 0.04057048 -2.064103 -1.503628 -2.155812 -1.63817 -2.581703 -1.672786 -1.508254 -2.108082 -0.5948785 5.921931 5.110256 1 104
0.6899028 2.907483 0.2789513 2.690488 0.6067205 -1.070388 -0.6494452 -1.692888 2.706598 -0.768301 2.666748 -1.566158 2.795121 2.308279 -0.9869558 0.9411954 -1.685591 0.3814306 -1.835082 4.019398 -0.07801373 0.5792564 -2.638609 0.1099362 -1.147287 0.3432502 0.1897839 -3.094615 -1.181026 -2.274904 0.1604228 -1.955222 -1.368733 -2.229283 -1.513573 -2.465729 -1.559968 -1.356384 -1.99961 -0.5631707 6.453722 4.852288 1 108
1.466934 2.976372 0.1712738 2.778692 0.6233319 -1.192301 -0.475924 -1.726715 2.929318 -1.022602 2.414689 -2.318138 2.630516 2.129997 -1.167292 1.014745 -1.801807 0.4041159 -2.305512 3.949196 -0.2317784 0.3872121 -2.976495 0.05105704 -1.008629 0.6222742 -0.05301074 -3.459456 -1.283421 -2.373353 0.2113371 -2.017143 -1.299133 -2.376089 -1.427059 -2.466486 -1.482644 -1.201191 -1.899635 -0.6058615 6.496334 6.914168 1 112
2.287081 3.144997 -0.01873974 2.981084 0.6796982 -1.335133 -0.2665693 -1.476269 3.119663 -1.277388 2.00462 -2.586121 2.275228 2.017923 -1.137473 1.16139 -1.908945 0.3543877 -2.608353 3.764694 -0.3892425 0.2999033 -3.410322 -0.04494988 -1.077991 1.043365 -0.2174718 -3.757145 -1.318638 -2.640689 0.2890569 -2.118324 -1.247263 -2.497163 -1.356067 -2.557126 -1.396338 -1.103131 -1.758089 -0.4825854 6.340889 8.22347 1 116
2.998774 3.469823 -0.3014789 3.347297 0.7595448 -1.421547 -0.1382312 -1.327987 3.21791 -1.489949 1.809428 -2.832394 2.104512 2.013966 -0.9410887 1.406512 -2.10437 0.354904 -3.158346 3.670948 -0.5601464 0.366354 -4.05889 -0.01866193 -1.746445 1.65197 -0.2379708 -4.109166 -1.213584 -3.281909 0.4964151 -2.470985 -1.091108 -2.662965 -1.217865 -2.925032 -1.220942 -1.228259 -1.509521 -0.2372054 6.370961 9.466713 1 120
3.641129 3.885174 -0.707065 3.802039 0.845773 -1.345356 -0.1004556 -1.488788 3.170899 -1.686926 2.007835 -3.419739 2.290167 2.002456 -0.7942411 1.577618 -2.370741 0.368667 -4.125372 3.926244 -0.7944267 0.3840359 -4.883615 0.110459 -2.795018 2.201654 -0.2439817 -4.586432 -1.094793 -4.123799 0.7889829 -3.10832 -0.7938433 -2.957067 -0.9765341 -3.568258 -0.9417058 -1.5529 -1.199235 -0.116094 6.599122 12.17243 1 124
4.235894 4.204227 -0.9808828 4.14299 0.9787332 -1.124897 0.01826035 -1.641604 3.068883 -1.714178 2.257024 -3.749804 2.491488 1.921299 -0.7090144 1.615794 -2.465592 0.3476481 -4.745113 4.465422 -0.9505621 0.2465008 -5.442887 0.2128269 -3.581264 2.501258 -0.3023559 -4.934064 -1.08921 -4.681561 1.002537 -3.555966 -0.5501072 -3.216241 -0.7820461 -4.106009 -0.7312473 -1.76989 -0.98368 -0.1566622 6.665342 13.58864 1 128
4.555358 4.288499 -0.995246 4.235485 1.139264 -0.867196 0.2455046 -1.597119 3.066436 -1.605523 2.144104 -3.592569 2.334466 1.789897 -0.6232269 1.602224 -2.350719 0.3028725 -4.777218 4.959079 -0.925877 0.05409492 -5.487781 0.2162842 -3.966002 2.560246 -0.3302715 -4.973377 -1.149447 -4.814804 1.064781 -3.607189 -0.4543293 -3.22881 -0.7312561 -4.272525 -0.6865315 -1.720517 -0.8729904 -0.1484787 6.508026 12.71237 1 132
4.31148 4.115533 -0.9801686 4.07627 1.197533 -0.7411062 0.3354999 -1.593013 3.115936 -1.735365 1.769245 -3.470432 1.928693 1.653919 -0.6327614 1.614854 -2.320613 0.2503583 -4.828591 4.954663 -0.8757713 -0.07004312 -5.261019 0.1228009 -4.184781 2.321245 -0.265833 -4.800234 -1.170278 -4.757265 1.027778 -3.518062 -0.3481459 -2.978584 -0.6985613 -4.114199 -0.6531527 -1.491406 -0.7047306 0.1260353 6.383931 12.88835 1 136
3.598974 3.797534 -0.9458202 3.767701 1.106747 -0.673988 0.1516565 -1.646454 3.016678 -2.123587 1.402323 -3.527518 1.536101 1.521224 -0.8231089 1.651858 -2.479131 0.1999719 -4.908729 4.224958 -0.8982553 -0.1018361 -4.953623 -0.02357559 -4.056915 1.842935 -0.1399516 -4.497104 -1.12803 -4.543729 0.9691681 -3.308016 -0.1409328 -2.590128 -0.5475916 -3.704833 -0.4871938 -1.19049 -0.424409 0.6191199 6.177307 14.28064 1 140
2.928446 3.512274 -0.8653542 3.469246 0.8519632 -0.5991371 -0.1081305 -1.709856 2.810486 -2.646738 1.136133 -3.685315 1.24315 1.291932 -1.175312 1.577604 -2.67102 0.1604025 -4.798188 3.355437 -0.9301122 -0.1067095 -4.593586 -0.05453228 -3.525885 1.683851 0.00719337 -4.142409 -1.036698 -4.083759 1.072065 -2.904972 0.0761712 -2.258872 -0.308645 -3.14867 -0.2353451 -0.9167414 -0.1444728 1.020632 5.780349 14.67308 1 144
2.743873 3.212599 -0.9057167 3.139302 0.3963555 -0.7371469 -0.2384476 -2.083815 2.703257 -3.50954 1.098771 -4.177321 1.198146 0.9196062 -1.619213 1.27868 -2.881333 0.1318775 -4.995581 3.247145 -0.9590086 -0.1680509 -4.375214 0.2070469 -3.267214 2.229549 0.1520741 -3.878002 -0.889402 -3.537564 1.444674 -2.548862 0.245389 -2.10517 -0.07450657 -2.624623 0.009854209 -0.704582 0.07243223 1.147211 5.642397 15.06012 1 148
2.857112 2.764469 -0.9632856 2.655644 -0.08619846 -1.153394 -0.2812401 -2.809162 2.759226 -4.611185 1.352594 -4.906327 1.49674 0.5651856 -1.989972 0.9291552 -3.166865 0.1751792 -5.693527 4.03278 -1.013711 -0.263196 -4.452635 0.7292717 -3.680875 3.023908 0.2736657 -3.752656 -0.679263 -3.201347 1.866952 -2.418166 0.412113 -2.059633 0.129513 -2.270633 0.225224 -0.5346288 0.2648848 1.112963 6.087366 16.27394 1 152
2.648438 2.303982 -0.9332612 2.171183 -0.3715899 -1.736042 -0.3328521 -3.553742 2.949934 -5.439439 1.754395 -5.417051 1.966047 0.3845306 -2.136067 0.8014937 -3.453656 0.3518379 -6.255411 5.165477 -1.103121 -0.2793829 -4.621654 1.320131 -4.186129 3.551205 0.3622875 -3.726681 -0.4251977 -3.165636 2.116471 -2.412964 0.5989899 -2.008987 0.3128517 -2.131752 0.409909 -0.4982033 0.4315086 1.063723 6.899331 16.62502 1 156
1.800021 1.977156 -1.04098 1.847583 -0.4844109 -2.434063 -0.4205356 -4.156528 3.121418 -5.748969 2.04268 -5.666327 2.293837 0.3518944 -2.075686 0.8750387 -3.612768 0.5521888 -6.265536 6.044162 -1.204986 -0.1957406 -4.527308 1.775877 -4.098793 3.894959 0.411331 -3.696306 -0.1805481 -3.159964 2.275928 -2.353299 0.807557 -1.911119 0.511383 -2.069364 0.6111391 -0.6513275 0.5674843 1.048001 7.659951 15.48501 1 160
0.6510723 1.780638 -1.358436 1.672169 -0.488861 -3.133394 -0.5167641 -4.542222 3.066994 -5.612823 2.065445 -5.955074 2.308851 0.4020743 -1.921374 0.9715002 -3.540348 0.6413359 -5.952884 6.35338 -1.235853 -0.1336044 -4.11227 1.969146 -3.44359 4.178405 0.3894537 -3.538291 -0.04543524 -2.941606 2.481626 -2.182598 1.024111 -1.842928 0.7362003 -1.947224 0.8484212 -0.8459167 0.6986178 1.010725 8.01316 14.02814 1 164
-0.1052929 1.734998 -1.658016 1.651764 -0.3497036 -3.522164 -0.5189133 -4.652736 2.81734 -5.171513 1.956927 -6.365172 2.161484 0.5180973 -1.758065 1.03956 -3.26069 0.6455557 -5.712444 6.252007 -1.175694 -0.1973293 -3.708024 1.946368 -2.785509 4.221056 0.2844207 -3.307356 -0.04957279 -2.722182 2.667366 -2.077507 1.200458 -1.919683 0.9272853 -1.921588 1.023676 -0.9732815 0.8138976 0.8333006 7.937834 13.2791 1 168
-0.09299809 1.728258 -1.871133 1.683637 -0.1834119 -3.468743 -0.4775088 -4.6292 2.534089 -4.724881 1.768468 -6.623353 1.955941 0.608714 -1.651169 1.042125 -3.007046 0.5860409 -5.768251 6.030202 -1.124046 -0.3377327 -3.602325 1.89131 -2.69207 3.941021 0.1914008 -3.130789 -0.06256562 -2.762474 2.745595 -2.175054 1.391147 -2.048794 1.120244 -2.060083 1.158813 -1.020788 0.9762377 0.6524392 7.645977 13.86272 1 172
0.3480963 1.609381 -2.114018 1.620986 -0.1916278 -3.283442 -0.6196027 -4.583806 2.323298 -4.658531 1.422834 -6.481325 1.629412 0.5499316 -1.689301 0.9410815 -3.039577 0.4084702 -6.078762 5.757128 -1.139671 -0.4378836 -3.73182 1.920694 -3.244095 3.611343 0.2049721 -2.961045 0.01768135 -2.952508 2.770302 -2.331264 1.640802 -1.99223 1.359455 -2.075231 1.356545 -0.94627 1.250113 0.7993092 7.26214 15.74803 1 176
0.7047161 1.552597 -2.328846 1.610809 -0.3302914 -3.140755 -0.9244898 -4.455807 2.186259 -5.024179 1.13072 -6.106671 1.347322 0.3632436 -1.912514 0.8022162 -3.340665 0.1665173 -6.402824 5.518468 -1.185037 -0.4771603 -3.904208 2.039469 -4.005031 3.585059 0.2909974 -2.744698 0.155436 -3.116307 2.817099 -2.378318 1.835864 -1.729515 1.551265 -1.887783 1.557117 -0.7921461 1.522393 1.280721 6.827123 17.34183 1 180
0.9331032 1.643595 -2.406675 1.71104 -0.4565925 -3.006886 -1.111274 -4.323396 1.991976 -5.492875 1.198406 -5.941129 1.400478 0.1349348 -2.280716 0.6362634 -3.655351 0.02456624 -6.601846 5.46328 -1.237453 -0.5408636 -3.998843 2.243281 -4.487356 3.831815 0.3804566 -2.573249 0.2629471 -3.217628 2.94518 -2.355544 1.96195 -1.488117 1.697977 -1.793399 1.727618 -0.6513577 1.696725 1.722695 6.395933 17.61629 1 184
0.9283539 1.528525 -2.333258 1.558419 -0.6101274 -3.028671 -1.0363 -4.582121 1.81896 -5.918164 1.678444 -6.371827 1.869241 -0.08938851 -2.721821 0.4084512 -3.865227 0.08957709 -6.806786 5.7976 -1.304337 -0.662822 -3.968532 2.596412 -4.517395 4.186869 0.4628572 -2.48989 0.3073223 -3.208243 3.194037 -2.334337 2.107248 -1.371273 1.865676 -1.887779 1.905071 -0.527054 1.79019 1.834311 6.386201 17.32155 1 188
0.2765081 1.030123 -2.166962 0.9924044 -0.8652214 -3.316445 -0.8508551 -5.418716 1.937443 -6.412152 2.272208 -7.331337 2.463792 -0.240628 -3.086596 0.211185 -4.021387 0.313867 -7.079916 6.652241 -1.338509 -0.7308197 -3.836218 3.123077 -4.225228 4.733263 0.5603294 -2.410175 0.3631724 -3.069721 3.53676 -2.266624 2.303649 -1.262706 2.052359 -1.972878 2.098299 -0.4293402 1.873274 1.716418 7.225008 16.59713 1 192
-0.5362553 0.4380989 -2.029141 0.3488956 -1.085328 -3.686788 -0.7326698 -6.189538 2.160079 -6.708784 2.556892 -8.164607 2.741038 -0.2594659 -3.203391 0.158436 -4.067849 0.5133835 -7.203495 7.467561 -1.331145 -0.684436 -3.58018 3.532561 -3.810631 5.13545 0.6571856 -2.291157 0.4233453 -2.895378 3.754301 -2.169811 2.478429 -1.103099 2.215641 -1.947977 2.259037 -0.4541675 1.958732 1.595761 8.169481 15.57102 1 196
-0.2085141 0.1388779 -1.928122 0.04153343 -1.059039 -3.824903 -0.6174685 -6.080861 2.062247 -6.401872 2.473396 -8.271194 2.64006 -0.1761015 -3.062096 0.2163633 -3.905467 0.5291688 -6.965558 7.567513 -1.346673 -0.6430701 -3.195961 3.50049 -3.390008 4.854361 0.700202 -2.192951 0.3519588 -2.756349 3.551472 -2.15131 2.374464 -0.989961 2.172208 -1.900299 2.175331 -0.6387471 1.844074 1.49616 8.037327 14.97933 1 200
1.070757 0.2676169 -1.883222 0.1923341 -0.8502175 -3.721801 -0.4963732 -5.213822 1.719025 -5.722693 2.15884 -7.71435 2.308543 -0.05471544 -2.781266 0.2388799 -3.562107 0.3770934 -6.421234 7.06015 -1.336585 -0.6797917 -2.823293 3.149524 -2.970374 4.238017 0.7264389 -2.09064 0.1644329 -2.610207 3.040689 -2.179901 1.910671 -0.9624443 1.8285 -1.904073 1.792467 -0.8039591 1.445987 1.39456 6.979523 14.71885 1 204
1.712358 0.587723 -1.877906 0.5324073 -0.6688766 -3.630366 -0.5485463 -4.236526 1.43579 -5.155163 1.668127 -7.040268 1.783162 0.1094942 -2.412239 0.1879325 -3.106737 0.2176359 -5.832327 6.376587 -1.18649 -0.7069458 -2.588455 2.79066 -2.504058 3.747379 0.8543807 -1.871549 0.01784275 -2.396888 2.55906 -2.143202 1.377051 -0.9135399 1.398645 -1.925378 1.363485 -0.744149 1.009814 1.320699 5.923864 14.51557 1 208
1.374375 0.8312983 -1.665316 0.765144 -0.5359794 -3.545283 -0.7593597 -3.534846 1.311266 -4.80748 1.234603 -6.69565 1.287658 0.3331992 -1.967138 0.2004465 -2.644677 0.2138318 -5.493855 6.003676 -0.9371609 -0.6234212 -2.545853 2.614452 -2.203122 3.323438 1.071762 -1.628575 -0.01962105 -2.2667 2.210837 -2.121993 0.9890029 -0.8404269 1.07712 -2.011467 1.045217 -0.5901784 0.7224529 1.207409 5.353283 14.26761 1 212
0.900947 0.9705884 -1.195683 0.8689955 -0.4020015 -3.242751 -0.9564531 -3.276617 1.364892 -4.684884 1.114847 -6.840017 1.100181 0.5601378 -1.573523 0.3472079 -2.362784 0.3721569 -5.631332 6.185748 -0.7664567 -0.4331792 -2.693771 2.64831 -2.353266 2.970752 1.226624 -1.585181 0.01917954 -2.390962 1.941472 -2.282432 0.7206848 -0.8540044 0.8314348 -2.190712 0.7947088 -0.6362011 0.5486534 1.017703 5.388438 14.45855 1 216
0.7583071 1.101702 -0.6786773 0.9705325 -0.2194456 -2.691042 -1.012429 -3.343701 1.616098 -4.781922 1.209907 -7.088522 1.143685 0.7399026 -1.3512 0.577419 -2.304854 0.5557686 -5.998646 6.52263 -0.7655462 -0.2246863 -2.909009 2.730533 -2.793104 2.729732 1.216469 -1.72297 0.06598642 -2.663174 1.650631 -2.555918 0.5099539 -0.976619 0.5850765 -2.364345 0.5453579 -0.9155119 0.3876233 0.8294672 5.873452 15.0411 1 220
1.1236 1.301713 -0.2385501 1.163825 0.09674358 -2.12056 -0.8444533 -3.388341 1.982994 -4.82377 1.298647 -6.632493 1.221709 0.8576838 -1.233486 0.8112608 -2.240995 0.6543236 -5.940312 6.653838 -0.8579831 -0.1137577 -3.007939 2.721573 -3.15246 2.588421 1.028797 -1.878341 0.01978209 -2.946006 1.33244 -2.815254 0.3018015 -1.217335 0.3145844 -2.614991 0.2733919 -1.318906 0.1489325 0.5451432 6.369233 14.57541 1 224
2.012146 1.562197 0.05030298 1.442548 0.5147918 -1.672401 -0.546298 -3.200019 2.250772 -4.527732 1.316758 -5.441849 1.287846 0.9222561 -1.076755 0.9430358 -1.962326 0.6402153 -5.303307 6.629352 -0.9272089 -0.1997108 -2.887733 2.620176 -3.205559 2.486246 0.7077561 -1.999349 -0.1927265 -3.138535 1.087583 -3.061121 -0.003177318 -1.559725 -0.04087537 -3.010026 -0.06444892 -1.786359 -0.2200583 -0.03343881 6.488751 13.09808 1 228
2.909471 1.84975 0.1783018 1.75968 0.8808937 -1.278764 -0.3525497 -2.902024 2.338318 -3.955909 1.315459 -4.463789 1.368351 0.9754494 -0.8496943 0.9354612 -1.566987 0.561303 -4.676486 6.621513 -0.9264222 -0.3930172 -2.668656 2.54868 -3.123666 2.516855 0.3896639 -2.083466 -0.4662425 -3.197031 0.9996151 -3.288558 -0.3804375 -1.881104 -0.4474846 -3.372875 -0.4427055 -2.22038 -0.6362007 -0.7553506 6.329878 11.8512 1 232
3.111259 2.098567 0.2044405 2.027127 1.04414 -0.9669386 -0.3747332 -2.851667 2.381043 -3.461441 1.33172 -4.48304 1.467921 1.040192 -0.6615628 0.8934081 -1.328892 0.497124 -4.719593 6.778759 -0.8975193 -0.450415 -2.616766 2.647619 -3.357882 2.896503 0.2300615 -2.157482 -0.5784407 -3.314246 1.14732 -3.543779 -0.5545596 -2.10702 -0.6331969 -3.633319 -0.6158362 -2.556226 -0.8479115 -1.234934 6.397316 11.75302 1 236
2.608336 2.217727 0.2527019 2.1498 1.011143 -0.7475021 -0.4787903 -2.987964 2.427079 -3.224995 1.298231 -5.146723 1.497451 1.135824 -0.5876107 0.9705019 -1.299356 0.4876318 -5.26356 7.040982 -0.8500507 -0.3074493 -2.73764 2.825171 -3.864659 3.295126 0.2421249 -2.229025 -0.495322 -3.621406 1.420928 -3.844522 -0.4478531 -2.242909 -0.5269908 -3.877771 -0.5051103 -2.805038 -0.7486799 -1.338763 6.698407 12.60053 1 240
1.965994 2.160156 0.4468061 2.08317 0.9203042 -0.5737044 -0.4762398 -2.94175 2.428609 -3.070057 1.251104 -5.575551 1.452845 1.240295 -0.5951065 1.151964 -1.271266 0.5187031 -5.533503 7.278549 -0.7331991 -0.1481605 -2.719675 2.900442 -4.074945 3.251946 0.2876168 -2.204669 -0.3946211 -3.897433 1.571455 -4.033836 -0.3530148 -2.290111 -0.428569 -4.073504 -0.378857 -2.960628 -0.5823842 -1.282214 6.79611 12.8869 1 244
1.481516 1.866024 0.611158 1.773836 0.7765377 -0.6487909 -0.3649006 -2.91523 2.486976 -3.004886 1.294679 -5.879716 1.459378 1.206844 -0.6918717 1.250891 -1.196462 0.5099078 -5.466674 7.552808 -0.6083483 -0.1711975 -2.47119 2.894683 -3.728681 3.093987 0.2392824 -2.062512 -0.3613758 -3.882651 1.629898 -4.001857 -0.3041766 -2.26284 -0.3887347 -4.074149 -0.2957867 -2.969332 -0.4906128 -1.327084 6.832914 12.60779 1 248
1.434595 1.426714 0.5680057 1.335737 0.5633076 -1.043493 -0.2806606 -3.10513 2.68439 -3.154682 1.322554 -6.370114 1.501084 0.9426874 -0.9028453 1.17772 -1.230071 0.3850864 -5.482324 7.821685 -0.6312063 -0.3646063 -2.245888 2.871572 -3.185405 3.218681 0.1007889 -1.902636 -0.3393754 -3.659283 1.680861 -3.84769 -0.1741876 -2.190281 -0.2728737 -3.874327 -0.1664306 -2.807255 -0.3858744 -1.455395 6.95394 13.08262 1 252
2.163871 1.147258 0.4414019 1.080809 0.3772008 -1.411121 -0.3532208 -3.117567 2.828026 -3.402036 1.24205 -6.563107 1.492887 0.564198 -1.199858 1.009424 -1.463125 0.1779788 -5.56607 7.695092 -0.8397837 -0.5285977 -2.208467 2.790299 -2.890186 3.381136 -0.03475599 -1.806956 -0.2699316 -3.471123 1.641056 -3.735921 -0.08519514 -2.082129 -0.1738833 -3.644543 -0.08397298 -2.607204 -0.2859749 -1.421957 6.70947 14.50452 1 256
3.182942 1.10967 0.2918744 1.071123 0.1923799 -1.578863 -0.6070731 -2.782164 2.755038 -3.65326 1.134784 -6.219896 1.419559 0.2498203 -1.584162 0.8189337 -1.848939 0.006385216 -5.557951 7.006235 -1.098683 -0.5182051 -2.290631 2.695817 -2.894127 3.330234 -0.06517534 -1.794821 -0.0950201 -3.416954 1.570373 -3.697188 -0.003225814 -1.934165 -0.06414866 -3.50977 0.01643003 -2.472415 -0.1499522 -1.115522 6.003735 16.09693 1 260
3.386175 1.01357 0.0566711 0.9892799 -0.07947423 -1.804821 -0.9343142 -2.38477 2.538003 -3.804917 1.030023 -5.618721 1.263731 0.06114247 -2.016373 0.570319 -2.187798 -0.06907218 -5.427648 6.211467 -1.239996 -0.3775545 -2.349895 2.691527 -2.963993 3.050411 0.0311084 -1.795952 0.1689022 -3.426073 1.588971 -3.65558 0.3043928 -1.772762 0.2652613 -3.48245 0.3569589 -2.315322 0.1878692 -0.699467 5.214792 17.42646 1 264
2.519806 0.6644111 -0.1566294 0.6256746 -0.3564053 -2.222534 -1.173696 -2.13666 2.301456 -3.768007 0.8615303 -4.989591 1.029865 -0.02625398 -2.308453 0.2379211 -2.307283 -0.09921921 -5.23871 5.844424 -1.186734 -0.2417395 -2.363096 2.739574 -3.048148 2.774344 0.1651313 -1.72023 0.4198889 -3.405146 1.726456 -3.605543 0.8236717 -1.651893 0.801518 -3.584096 0.9035904 -2.107423 0.7025641 -0.3858049 4.618011 18.32348 1 268
1.730974 0.2749076 -0.1592089 0.1916137 -0.5052146 -2.520195 -1.225533 -1.960199 2.047643 -3.712665 0.6790215 -4.509686 0.8331957 -0.04445833 -2.3228 -0.08206923 -2.284775 -0.1347164 -5.08653 6.031059 -0.9994214 -0.1868536 -2.382632 2.743108 -3.224396 2.801331 0.2552501 -1.565262 0.5725717 -3.32943 1.837254 -3.535676 1.18149 -1.53639 1.210726 -3.712125 1.299545 -1.897418 1.115684 -0.1858534 4.156157 18.14198 1 272
1.980532 0.03668243 -0.1210243 -0.08343851 -0.5835695 -2.518978 -1.15738 -1.915315 1.705527 -3.851021 0.6951662 -4.491652 0.853636 -0.08176763 -2.212475 -0.3189723 -2.326606 -0.1858999 -5.065456 6.538379 -0.8414665 -0.1929227 -2.371237 2.679886 -3.326637 3.029133 0.307285 -1.380241 0.6096191 -3.199822 1.741985 -3.373512 1.200338 -1.307574 1.308398 -3.617085 1.372109 -1.679676 1.278326 0.06197655 3.757105 17.04757 1 276
2.556106 -0.1643835 -0.3388393 -0.2952511 -0.7446756 -2.574836 -1.164471 -2.32386 1.387482 -4.276271 1.0509 -5.154863 1.176429 -0.2160589 -2.233076 -0.5316565 -2.549527 -0.2559804 -5.389765 7.086987 -0.8066056 -0.2059507 -2.392844 2.625295 -3.331452 3.248743 0.3943209 -1.215465 0.6223118 -3.121752 1.626653 -3.20118 1.272764 -0.9998333 1.394119 -3.330158 1.438278 -1.468887 1.413567 0.4533669 3.766252 16.77406 1 280
1.997174 -0.4703218 -0.6872014 -0.6062711 -1.022051 -2.924606 -1.363361 -3.088795 1.153412 -4.861396 1.626079 -6.087775 1.699175 -0.4130919 -2.431472 -0.8042379 -2.839842 -0.3375726 -5.996951 7.587189 -0.7985486 -0.2184415 -2.523296 2.665917 -3.387728 3.118389 0.6358237 -1.026156 0.7081166 -3.096834 1.653473 -3.076283 1.645149 -0.7242694 1.695528 -3.013273 1.719915 -1.18002 1.705012 0.9075928 4.152226 18.30964 1 284
0.1030155 -0.8648125 -0.975854 -0.9983513 -1.378474 -3.292634 -1.674146 -3.833911 0.8295612 -5.22857 2.019827 -6.67863 2.079405 -0.5726528 -2.68765 -1.142985 -2.95218 -0.4170924 -6.406693 8.02599 -0.6484485 -0.219404 -2.559986 2.777731 -3.408946 2.52717 1.118472 -0.6713544 0.8957208 -2.899384 1.703619 -2.834592 2.104249 -0.422287 2.090758 -2.654012 2.096903 -0.6648834 2.091652 1.329244 4.389508 19.90506 1 288
-1.917108 -1.263522 -1.325555 -1.377941 -1.755052 -3.5865 -1.95422 -4.543431 0.4242444 -5.28536 1.810528 -6.943985 1.906619 -0.5762206 -2.883254 -1.43004 -2.876565 -0.4385105 -6.405466 8.238308 -0.2870337 -0.07052453 -2.378423 2.908991 -3.347621 2.280162 1.813061 -0.1186241 1.247896 -2.51336 1.829611 -2.355924 2.582794 0.01960791 2.554005 -2.263378 2.561019 0.04060252 2.57182 1.827855 4.583019 18.69746 1 292
-3.20004 -1.690462 -1.807485 -1.777847 -2.049593 -4.013426 -2.134303 -5.207361 0.06488141 -5.31395 0.9690273 -7.058534 1.107713 -0.3839805 -2.975861 -1.489579 -2.831553 -0.3454565 -6.142566 7.907218 0.1778843 0.3408326 -2.142166 3.007697 -3.254279 2.660059 2.563828 0.478713 1.773322 -2.132096 2.074112 -1.699026 3.204115 0.6022083 3.166592 -1.838045 3.203321 0.7683134 3.183054 2.570265 5.029571 14.63488 1 296
-3.591623 -2.148703 -2.179381 -2.2066 -2.160055 -4.372682 -2.193383 -5.450008 -0.3094949 -5.330777 -0.07660122 -7.103989 0.07489253 -0.1322575 -3.008362 -1.280629 -2.901209 -0.2132964 -5.860614 6.944903 0.5235264 0.8515992 -1.969581 2.894276 -3.020088 2.735538 3.114313 0.9297455 2.242092 -1.801453 2.058157 -1.101886 3.729017 1.181786 3.687197 -1.35416 3.763779 1.320974 3.696974 3.386849 5.218519 11.41262 1 300
-3.117169 -2.429445 -2.253294 -2.459663 -2.101816 -4.391611 -2.172555 -5.083319 -0.7607309 -5.095672 -0.7698029 -7.26851 -0.6152176 -0.04650543 -3.045312 -1.003217 -3.009473 -0.1473393 -5.72427 5.704982 0.6235486 1.159875 -1.849331 2.477266 -2.562332 2.090405 3.305749 1.165154 2.43424 -1.463452 1.552065 -0.7543857 3.801806 1.579799 3.804924 -0.9122151 3.885476 1.651635 3.851875 3.94435 4.567399 11.43607 1 304
-2.57253 -2.417641 -2.259014 -2.42378 -2.066092 -4.252859 -2.199017 -4.510669 -1.147722 -4.629537 -0.9054613 -7.285758 -0.7386055 -0.2061581 -3.124868 -0.9063034 -3.129406 -0.1214813 -5.552697 4.64329 0.5320883 1.158758 -1.795004 2.035089 -2.073877 1.379157 3.263638 1.221449 2.455213 -1.172131 1.048237 -0.5530273 3.674075 1.76281 3.741035 -0.6414602 3.784647 1.922034 3.839315 4.168182 3.442836 12.6133 1 308
-2.813257 -2.257149 -2.478054 -2.2281 -2.19431 -4.129462 -2.360049 -4.116771 -1.344362 -4.207554 -0.8291643 -6.762009 -0.6535259 -0.4370973 -3.228055 -0.9713821 -3.276765 -0.102741 -5.166019 3.800878 0.3759358 1.030797 -1.828237 1.822481 -1.745843 1.021775 3.212393 1.165224 2.518636 -1.002855 0.9659576 -0.3827413 3.731171 1.838565 3.825401 -0.5474399 3.836502 2.174907 3.949007 4.193124 2.522096 13.07802 1 312
-3.333912 -2.043195 -2.764664 -1.967341 -2.357784 -3.957831 -2.564725 -3.833889 -1.490135 -4.057938 -0.8787403 -6.0157 -0.6788579 -0.54828 -3.296676 -0.984252 -3.464785 -0.1282151 -4.754721 3.032275 0.2557914 1.025192 -1.96133 1.757441 -1.540274 0.8030474 3.232968 1.067651 2.672198 -0.9364277 1.051404 -0.2774924 3.827077 1.925294 3.946911 -0.5266998 3.936844 2.295742 4.081524 4.232979 1.877846 13.34171 1 316
-3.401285 -1.764513 -2.880966 -1.65403 -2.345165 -3.699971 -2.611788 -3.636286 -1.766216 -4.181699 -0.915046 -5.713465 -0.6829991 -0.5545524 -3.364877 -0.8601274 -3.721471 -0.1519158 -4.575719 2.73793 0.2038171 1.202408 -2.197093 1.825511 -1.450381 0.6967412 3.315817 0.963991 2.88383 -0.9730497 1.072567 -0.2101524 3.79946 2.047627 3.974072 -0.5133688 3.947421 2.294245 4.117921 4.427835 1.415101 12.8999 1 320
-3.29432 -1.492234 -2.916422 -1.36169 -2.157507 -3.429932 -2.381432 -3.575671 -2.120366 -4.298797 -0.7774035 -5.855838 -0.5749336 -0.5452413 -3.480992 -0.6755155 -3.937354 -0.0714477 -4.59772 3.186943 0.2068658 1.436891 -2.443177 2.065508 -1.550105 0.6849961 3.409328 0.8462479 3.090364 -1.092159 1.047786 -0.1516467 3.751072 2.129725 3.96821 -0.546587 3.951184 2.256428 4.126245 4.669559 1.131369 11.36978 1 324
-3.630855 -1.368247 -2.978055 -1.227002 -1.956968 -3.280382 -1.921909 -3.637239 -2.305507 -4.305305 -0.5270534 -5.970901 -0.4098209 -0.5488703 -3.600991 -0.4979679 -3.989831 0.08925276 -4.725948 3.853814 0.251005 1.581016 -2.643732 2.271403 -1.82178 0.545796 3.432467 0.6960878 3.152013 -1.219194 0.9566496 -0.1907918 3.727235 2.103538 3.943076 -0.6466909 3.950777 2.202371 4.109778 4.746748 1.068868 10.72321 1 328
-4.581504 -1.444118 -2.992347 -1.314014 -1.821852 -3.372177 -1.350946 -3.984749 -2.148804 -4.510208 -0.1115699 -6.219936 -0.04876079 -0.5648451 -3.749979 -0.3053078 -4.022875 0.2331797 -5.094466 4.467318 0.2991215 1.599596 -2.844356 2.320958 -2.089715 0.394344 3.390453 0.4966197 3.002827 -1.354607 0.8344173 -0.4072765 3.705302 1.95827 3.882868 -0.7969301 3.896207 2.093977 4.025073 4.547247 1.509254 12.47428 1 332
-5.432632 -1.536016 -2.98666 -1.42961 -1.700938 -3.625455 -0.7591551 -4.522957 -1.797831 -4.939608 0.4734422 -6.680666 0.5237315 -0.6062468 -3.96321 -0.08936656 -4.187508 0.3362095 -5.469103 5.282164 0.2964726 1.57613 -2.993417 2.343926 -2.078479 0.4921207 3.318537 0.2717989 2.776907 -1.48945 0.7516436 -0.6775256 3.645973 1.736477 3.781637 -0.9836258 3.775601 1.834051 3.86713 4.149311 2.294658 14.42158 1 336
-5.427418 -1.479906 -3.141826 -1.378679 -1.618214 -3.853422 -0.3059889 -4.985935 -1.440021 -5.213686 0.9858487 -6.800242 1.023456 -0.7374569 -4.174162 0.03418967 -4.419204 0.4103684 -5.320908 6.369295 0.2441358 1.575115 -3.001583 2.457064 -1.742634 0.9633846 3.200845 0.09264822 2.656121 -1.536039 0.7522791 -0.7308969 3.603539 1.549152 3.707525 -1.095166 3.683366 1.454776 3.717549 3.780822 2.963656 13.17815 1 340
-4.841004 -1.407166 -3.347982 -1.297018 -1.645169 -3.975869 -0.1385533 -5.323245 -1.105381 -5.035664 1.296751 -6.503606 1.334388 -0.9415911 -4.277464 -0.01380105 -4.505569 0.422289 -4.716645 7.378589 0.2001349 1.555505 -2.850496 2.583133 -1.325003 1.656335 3.034709 0.001192635 2.634974 -1.471587 0.8164936 -0.5473692 3.677901 1.451461 3.741389 -1.118653 3.72558 1.135688 3.669047 3.538577 3.443983 9.090714 1 344
-4.276596 -1.447342 -3.219978 -1.345631 -1.657759 -3.899754 -0.1863558 -5.24697 -0.9846163 -4.267773 1.31482 -5.992256 1.358881 -1.015415 -4.115164 -0.1145307 -4.153625 0.3348623 -3.878273 7.511981 0.2804098 1.485562 -2.4495 2.48175 -0.8521456 2.034141 2.881377 0.05544216 2.568951 -1.206726 0.8019926 -0.255761 3.760617 1.416195 3.80199 -1.138504 3.799904 0.9872429 3.671702 3.312478 3.433857 4.410548 1 348
-3.883388 -1.502161 -2.844526 -1.41565 -1.485847 -3.588352 -0.3227793 -4.644357 -1.251153 -3.207161 0.7826254 -5.382839 0.7955131 -0.8218096 -3.652666 -0.08554494 -3.390785 0.164996 -2.979038 6.252009 0.5421077 1.43496 -1.798764 2.037354 -0.2442304 1.758855 2.813408 0.2708944 2.402744 -0.6842663 0.5925456 0.08096781 3.735262 1.443792 3.801731 -1.062987 3.793185 1.03011 3.648525 3.056231 2.743024 1.067354 1 352
-3.495228 -1.387385 -2.697165 -1.287841 -1.176247 -3.202605 -0.4939496 -4.016033 -1.586309 -2.537119 -0.1675158 -5.180843 -0.2069882 -0.4621716 -3.131849 0.1248662 -2.718554 -0.04055567 -2.651498 4.23281 0.8052485 1.458413 -1.251184 1.438179 0.1274675 1.263667 2.782892 0.4444213 2.206132 -0.2382122 0.2517594 0.223779 3.624176 1.478377 3.712718 -0.8666098 3.696085 1.120422 3.548059 2.847497 2.111603 1.297247 1 356
-3.239686 -1.086297 -2.910485 -0.9504686 -0.9322943 -3.057304 -0.624476 -3.887062 -1.492353 -2.543786 -0.8255064 -5.595585 -0.8918858 -0.1155173 -2.840582 0.4192143 -2.521602 -0.1940647 -3.184587 2.720433 0.8796908 1.527228 -1.159764 1.04607 -0.1361734 1.272085 2.691079 0.3664826 2.085456 -0.2456752 0.06198639 -0.01703106 3.489606 1.366481 3.526927 -0.7657864 3.542183 1.034298 3.362762 2.705878 2.417223 4.70294 1 360
-3.573214 -0.8225184 -3.237927 -0.6546884 -0.8870181 -3.277582 -0.6149077 -4.378811 -0.9652389 -2.913597 -0.7252895 -6.047125 -0.7815378 0.1283253 -2.853534 0.693473 -2.686985 -0.1738545 -3.923892 2.358004 0.8195181 1.589079 -1.452037 1.064268 -0.7212065 1.748051 2.533949 0.1058346 2.064992 -0.6016501 0.1892694 -0.4301815 3.386467 1.040686 3.304778 -0.8879197 3.413377 0.7939616 3.159033 2.530264 3.644926 8.042562 1 364
-4.365181 -0.7195306 -3.379807 -0.545684 -0.9724088 -3.454288 -0.3907438 -5.18451 -0.4118563 -3.335695 -0.1194658 -6.264806 -0.1410217 0.251572 -3.026404 0.9131911 -2.907682 0.03651593 -4.301593 2.868341 0.7329254 1.575238 -1.839375 1.333987 -0.9545877 2.077632 2.329743 -0.1640776 2.035035 -0.8550768 0.3945765 -0.7046974 3.241466 0.5985435 3.063371 -1.091935 3.272802 0.5697058 2.905924 2.191662 5.044069 9.694184 1 368
-4.823208 -0.6441759 -3.176496 -0.5062302 -1.054302 -3.219617 0.00273309 -5.880213 -0.008421638 -3.81666 0.6705143 -6.5543 0.6994877 0.2181848 -3.203418 1.046353 -3.104133 0.3230633 -4.507796 3.836742 0.5801402 1.441228 -2.200519 1.610867 -0.7912285 2.122919 2.003292 -0.4516968 1.869405 -0.8912672 0.436216 -0.891497 2.935975 0.1353273 2.741997 -1.305045 2.984151 0.3291481 2.519244 1.66264 6.046835 10.81378 1 372
-4.61163 -0.4836953 -2.738544 -0.4052625 -1.075712 -2.823428 0.3981225 -6.237668 0.3826021 -4.264193 1.596636 -6.685802 1.674171 0.093072 -3.339223 1.126009 -3.340195 0.6061637 -4.615797 4.96723 0.3547784 1.286006 -2.468368 1.859989 -0.7444637 2.224614 1.525978 -0.7961454 1.613972 -1.02497 0.4107337 -1.095824 2.579905 -0.2835533 2.40184 -1.543116 2.6195 -0.02251779 2.106102 1.144949 6.678417 10.94932 1 376
-4.332232 -0.3235822 -2.434537 -0.2814728 -1.079531 -2.754323 0.6416665 -6.383819 0.7959534 -4.422999 2.458036 -6.34777 2.552636 0.06759191 -3.458838 1.237906 -3.556165 0.8864807 -4.376202 5.815692 0.2003302 1.271788 -2.520823 2.183597 -0.9770233 2.607268 1.094619 -1.056292 1.48234 -1.312176 0.5721137 -1.093617 2.51409 -0.5343237 2.305465 -1.633308 2.496719 -0.3396421 1.946545 0.9430827 7.286122 7.858712 1 380
-4.449005 -0.2492961 -2.460422 -0.200556 -1.118969 -3.051251 0.7623762 -6.457921 1.010039 -4.219142 2.993787 -5.867624 3.088675 0.1967163 -3.55492 1.359008 -3.594474 1.13918 -3.894706 5.991882 0.192917 1.382981 -2.367499 2.543952 -1.216409 3.016919 0.8814552 -1.127074 1.524105 -1.517212 0.9316103 -0.8302376 2.796194 -0.6096432 2.519387 -1.545605 2.68947 -0.4400564 2.102761 1.035856 7.795494 2.817221 1 384
-4.600264 -0.1250027 -2.616843 -0.03861401 -1.141839 -3.295505 0.9453936 -6.26893 0.9254745 -3.736242 3.209463 -5.307055 3.329448 0.3623035 -3.558544 1.430069 -3.37156 1.28151 -3.241521 5.714731 0.2523689 1.461467 -2.081083 2.75171 -1.144947 3.049084 0.7637957 -1.108813 1.532853 -1.496681 1.213439 -0.5112469 2.994714 -0.6703682 2.684304 -1.495418 2.824258 -0.3608283 2.237746 1.082772 7.741359 -1.616984 1 388
-4.49131 0.121506 -2.807071 0.2546609 -1.172431 -3.461207 1.09024 -5.965256 0.8941926 -3.363133 3.285703 -4.837941 3.438972 0.4156399 -3.542977 1.391414 -3.119324 1.263042 -2.535928 5.825212 0.2361951 1.439272 -1.771577 2.850595 -0.6623439 3.043749 0.5435429 -1.122214 1.42259 -1.235316 1.391755 -0.1894129 2.905506 -0.7630503 2.592831 -1.463666 2.713002 -0.2134452 2.153865 0.9576722 7.462134 -4.975682 1 392
-4.273955 0.2883376 -3.107764 0.4459428 -1.354735 -3.920551 0.8687048 -5.985878 1.19181 -3.585247 3.318875 -5.113688 3.45759 0.3084348 -3.65296 1.19358 -3.185486 1.144808 -2.295409 6.558623 0.09120724 1.413445 -1.62212 3.078842 -0.1190316 3.69771 0.2575529 -1.150489 1.378521 -0.8630753 1.749994 0.1868272 2.855454 -0.7506312 2.518208 -1.199434 2.652458 -0.004576531 2.105776 0.9277461 7.69071 -7.19615 1 396
-3.963131 0.2242621 -3.328201 0.3647981 -1.634236 -4.529461 0.4065569 -6.106888 1.594418 -4.227967 3.204021 -5.799312 3.285786 0.1429674 -3.818446 0.9486753 -3.535611 1.025492 -2.48079 7.178579 -0.1036579 1.468273 -1.687224 3.394471 0.1372682 4.786687 0.02117641 -1.15624 1.487194 -0.5758396 2.282773 0.5900761 3.036756 -0.5964327 2.678947 -0.7262668 2.837583 0.2465524 2.278459 1.17077 8.133257 -8.656178 1 400
-3.506145 0.03451265 -3.267278 0.1355162 -1.752429 -4.766448 0.2434584 -5.821104 1.8177 -4.632694 2.883673 -5.963659 2.918215 0.044148 -3.894766 0.8233716 -3.825844 0.9418334 -2.565362 7.201921 -0.2648879 1.491988 -1.884091 3.503345 0.1848103 5.418192 -0.2086941 -1.185585 1.541976 -0.4649465 2.612439 0.8495705 3.222941 -0.4716433 2.904561 -0.4129829 3.045162 0.4377736 2.480503 1.443984 8.040481 -9.33358 1 404
-3.177144 -0.1390082 -3.192508 -0.05815589 -1.652166 -4.614157 0.5722032 -5.301536 1.813044 -4.585772 2.534372 -5.772354 2.545129 0.06104858 -3.888229 0.8207321 -3.88639 0.8722044 -2.683324 6.763815 -0.3686444 1.374165 -2.147032 3.309866 0.1047043 5.180107 -0.446117 -1.29033 1.388132 -0.5135492 2.50831 0.7746277 3.21344 -0.5111177 2.968647 -0.4309864 3.052635 0.5869278 2.497421 1.474768 7.491663 -7.249506 1 408
-3.262885 -0.347138 -3.427124 -0.2535686 -1.563211 -4.557155 0.9713582 -5.235496 1.660729 -4.560658 2.431914 -6.092876 2.432622 0.1320834 -3.896799 0.8289217 -3.949889 0.8038685 -3.400598 6.266948 -0.473754 1.239219 -2.48663 3.078574 -0.2540826 4.560717 -0.5783997 -1.451661 1.175532 -0.6638008 2.225558 0.3848419 3.116201 -0.6154752 2.913123 -0.5723208 2.965204 0.7915127 2.397772 1.360907 7.221504 -1.315546 1 412
-3.772914 -0.6872313 -3.806844 -0.5757946 -1.628522 -4.775592 0.9808565 -5.961958 1.411111 -5.016288 2.654365 -7.21159 2.650317 0.203203 -3.950725 0.818974 -4.240702 0.7985684 -4.686956 6.085055 -0.5923154 1.290241 -2.875582 3.093142 -0.9050734 4.31504 -0.5045877 -1.542637 1.178565 -0.7977413 2.152204 -1.892177e-05 3.144027 -0.5244954 2.927888 -0.5405787 3.008323 1.058073 2.412399 1.443177 7.667376 5.305292 1 416
-4.597295 -1.136921 -3.968388 -1.025257 -1.809808 -4.977435 0.5755519 -7.04026 1.034225 -5.8375 2.843346 -8.502902 2.841728 0.3502059 -3.980824 0.8576887 -4.598751 0.8851348 -5.860869 6.119967 -0.6078784 1.554623 -3.169238 3.30224 -1.51918 4.352238 -0.2193022 -1.442848 1.482568 -0.7966812 2.287842 -0.05848375 3.347671 -0.1371451 3.108443 -0.2210932 3.25452 1.381811 2.658729 1.908418 8.487991 8.87303 1 420
-5.43696 -1.519714 -3.881476 -1.416313 -2.024274 -5.003129 0.005873886 -7.770214 0.6820734 -6.514946 2.6085 -8.871301 2.637679 0.550371 -3.947677 0.908251 -4.799287 0.9513009 -6.157226 6.055614 -0.5053559 1.839708 -3.300317 3.52156 -1.787063 4.431468 0.1176451 -1.212407 1.927174 -0.6956921 2.580996 0.2547078 3.720497 0.3308167 3.490193 0.1617083 3.687236 1.751565 3.113434 2.556705 9.052702 7.905534 1 424
-5.904768 -1.566334 -3.765424 -1.451317 -2.1528 -4.89811 -0.5069864 -7.772412 0.5788612 -6.635905 2.07443 -7.687947 2.1609 0.5957935 -3.861309 0.8197773 -4.776248 0.8670263 -5.193718 5.915985 -0.395202 1.925977 -3.250876 3.691135 -1.633901 4.836509 0.3025096 -0.9495449 2.288049 -0.5318832 3.064445 0.8625057 4.146357 0.6781101 3.934193 0.3897893 4.139549 2.109484 3.598561 3.018111 8.949223 1.987355 1 428
-5.954751 -1.30053 -3.636003 -1.156168 -2.170797 -4.63036 -0.9296688 -7.173478 0.5938351 -6.412826 1.642385 -5.931876 1.773455 0.4081016 -3.741967 0.5554134 -4.604823 0.6523225 -3.781999 5.958179 -0.3465518 1.792007 -3.005244 3.818089 -1.264041 5.244337 0.3314661 -0.6791122 2.44584 -0.3104964 3.446434 1.447752 4.265186 0.9213772 4.06846 0.518131 4.264897 2.392986 3.799742 3.130562 8.157902 -4.598116 1 432
-5.743091 -1.039857 -3.419504 -0.884063 -2.189691 -4.244173 -1.3002 -6.61279 0.5611129 -6.456596 1.573877 -5.362944 1.712576 0.1259081 -3.679774 0.2623241 -4.560215 0.46036 -3.421494 6.36899 -0.4143418 1.613829 -2.777308 3.973362 -1.198161 5.202851 0.3192191 -0.5220554 2.473278 -0.2582446 3.533327 1.498174 3.967108 1.064516 3.788844 0.5488986 3.994406 2.478082 3.628224 2.992389 7.345505 -5.402614 1 436
-5.328187 -0.9388989 -3.198174 -0.7916841 -2.226344 -3.956535 -1.516323 -6.483304 0.5872447 -6.776245 1.855353 -6.064056 1.993699 -0.1192521 -3.746072 0.10639 -4.74612 0.3756596 -4.138928 7.024453 -0.5850222 1.525479 -2.69889 4.171 -1.533713 5.019143 0.2697281 -0.549754 2.470119 -0.4632742 3.50456 1.050612 3.537398 1.074514 3.355178 0.4434309 3.586002 2.275271 3.281203 2.759302 7.106119 -1.511114 1 440
-5.003516 -0.9978127 -3.090803 -0.8544903 -2.219836 -3.958687 -1.46176 -6.551639 0.6963079 -6.907262 2.124116 -6.944325 2.283879 -0.2971302 -3.874555 0.134076 -4.89615 0.350226 -4.804764 7.294836 -0.7220536 1.456071 -2.550352 4.268699 -1.639046 4.960021 0.1802289 -0.579706 2.412748 -0.5661947 3.497405 0.6376964 3.196701 1.026573 2.992202 0.3648531 3.248911 1.954898 2.930593 2.514249 7.188769 2.206081 1 444
-5.063745 -1.168784 -3.119405 -1.022091 -2.150626 -4.136349 -1.147662 -6.543527 0.7254683 -6.740373 2.055487 -7.625149 2.229131 -0.3827533 -3.918818 0.3005016 -4.829887 0.3447914 -5.081536 6.710453 -0.7438339 1.329462 -2.280003 4.196265 -1.257894 4.892563 0.1398356 -0.4893217 2.322181 -0.4112408 3.514544 0.423588 2.97312 0.9788831 2.775735 0.3477832 3.034067 1.750252 2.645139 2.217622 7.123977 5.082214 1 448
-4.997687 -1.274291 -3.103108 -1.133156 -1.943952 -4.054605 -0.6834489 -6.385916 0.6578655 -6.395496 1.867892 -7.883231 1.998771 -0.3583214 -3.799347 0.5209976 -4.670815 0.366495 -5.171207 5.876227 -0.7178101 1.206964 -2.152887 4.05139 -0.9859799 4.722315 0.1156581 -0.4409766 2.246999 -0.3320791 3.475388 0.1808795 2.789522 0.8784494 2.633518 0.1548958 2.844791 1.589476 2.392798 1.774171 6.844937 7.293927 1 452
-4.061109 -1.19435 -2.924531 -1.069403 -1.591385 -3.580565 -0.2638464 -6.113535 0.6519331 -5.93103 1.920425 -7.394469 1.967289 -0.3019376 -3.608397 0.7065723 -4.627811 0.4041052 -5.05868 5.637607 -0.7549686 1.145334 -2.274684 3.942001 -1.221095 4.540346 -0.04359441 -0.5896837 2.123953 -0.507495 3.287473 -0.1550695 2.517157 0.7117576 2.412934 -0.2041384 2.546436 1.261364 2.054163 1.240721 6.512179 7.888056 1 456
-2.616048 -1.060359 -2.619814 -0.9432467 -1.245436 -3.125292 -0.03797835 -5.71833 0.6774673 -5.380799 2.140652 -6.460518 2.136151 -0.2527582 -3.441553 0.8744794 -4.635121 0.4410568 -4.711078 5.734046 -0.8467554 1.171847 -2.401292 3.890862 -1.592188 4.267703 -0.3062325 -0.8028857 1.965997 -0.7109611 3.007746 -0.4036901 2.132026 0.566718 2.092363 -0.4190463 2.16113 0.8147226 1.634555 0.8228686 6.107053 7.092001 1 460
-1.844 -1.016621 -2.176481 -0.8990584 -1.027588 -2.914669 -0.005593571 -5.270438 0.6886636 -4.91999 2.289097 -5.692604 2.289402 -0.1694969 -3.302728 1.06852 -4.428959 0.4574414 -4.325129 5.415247 -0.9038429 1.220417 -2.320148 3.853626 -1.728767 3.813496 -0.5194603 -0.9137364 1.86191 -0.7578902 2.8187 -0.5008948 1.814311 0.4262735 1.816001 -0.415757 1.871458 0.4233509 1.302299 0.5363393 5.75141 6.335942 1 464
-2.110663 -0.8938982 -1.755951 -0.7858973 -0.9537033 -2.765264 -0.07060048 -5.019001 0.8976822 -4.808639 2.391108 -5.437918 2.404828 -0.1027759 -3.211938 1.186495 -4.046973 0.4121237 -4.14029 4.836998 -0.9293919 1.125567 -2.173489 3.827027 -1.586581 3.591431 -0.6997043 -1.014076 1.769592 -0.7098205 2.858633 -0.5901775 1.677921 0.1445956 1.653678 -0.436221 1.733828 0.07689373 1.099575 0.1405961 5.819868 6.594497 1 468
-2.579767 -0.4476689 -1.557673 -0.3530068 -0.8903122 -2.556383 -0.1403135 -4.958272 1.289246 -4.853451 2.628831 -5.611744 2.64273 -0.1212756 -3.092858 1.176073 -3.707831 0.329013 -4.022718 4.891303 -0.9923664 0.882875 -2.103885 3.875266 -1.114164 3.849971 -0.9801781 -1.229085 1.591572 -0.6909679 3.045976 -0.7709877 1.534516 -0.3069337 1.461639 -0.7051847 1.553043 -0.3607706 0.8609552 -0.5008326 6.163545 6.872086 1 472
-2.407515 0.2408403 -1.492942 0.3367648 -0.6364994 -2.244484 -0.1630808 -4.908274 1.561553 -4.6646 3.037215 -5.892645 3.055112 -0.1920343 -2.821843 1.183287 -3.475691 0.2723337 -3.851792 5.750617 -1.170683 0.6216868 -2.047391 3.947941 -0.5555447 4.189669 -1.441148 -1.509173 1.274794 -0.8411171 3.139027 -1.109897 1.241105 -0.8280035 1.147038 -1.249309 1.225776 -0.9667372 0.4937348 -1.231924 6.354526 6.629288 1 476
-1.646663 0.8924467 -1.311022 0.9925261 -0.16498 -1.790036 -0.08549865 -4.805135 1.692461 -4.27828 3.461901 -5.976698 3.472831 -0.2210205 -2.43622 1.340036 -3.297903 0.2570247 -3.796291 6.525035 -1.453973 0.4188239 -1.986695 3.88702 -0.4345526 4.26361 -2.00001 -1.753515 0.8641942 -1.257433 2.982426 -1.639642 0.8969364 -1.331621 0.7843304 -1.935231 0.8577182 -1.636929 0.09486493 -1.773378 6.408494 6.92005 1 480
-0.9034552 1.338578 -0.832497 1.417554 0.3973398 -1.339346 0.09474701 -4.493582 1.869744 -3.793826 3.640929 -5.712618 3.616766 -0.1410982 -2.030168 1.596197 -3.032829 0.292729 -3.787192 6.599132 -1.65502 0.2869452 -1.938121 3.675709 -0.7568445 4.11302 -2.436453 -1.927013 0.489225 -1.726258 2.646789 -2.14028 0.5767171 -1.776002 0.4254453 -2.537832 0.5209275 -2.136923 -0.2326108 -2.035763 6.396328 7.37091 1 484
-0.3770326 1.577031 -0.2254975 1.613099 0.8973587 -1.028655 0.2888945 -3.971364 2.06907 -3.198307 3.465652 -5.33849 3.418502 -0.01918585 -1.691887 1.770641 -2.63393 0.3467019 -3.701801 6.279393 -1.67056 0.1664572 -1.939356 3.421895 -1.125943 3.957081 -2.673981 -2.076896 0.2058993 -1.926997 2.369214 -2.353868 0.3534019 -2.126963 0.1688788 -2.866401 0.2868006 -2.310476 -0.4358648 -2.188682 6.233966 6.992181 1 488
0.111455 1.692901 0.2137735 1.695082 1.208388 -0.7095827 0.3861462 -3.524833 2.204345 -2.665814 3.161656 -5.121671 3.130859 0.03273186 -1.468837 1.774244 -2.261793 0.3424869 -3.676472 6.000687 -1.630397 0.0248299 -2.068962 3.193845 -1.42964 3.905684 -2.838437 -2.264756 0.003575694 -1.945294 2.279629 -2.379606 0.2952344 -2.350946 0.08679107 -2.982533 0.2035319 -2.263143 -0.4954169 -2.366483 6.010683 6.486099 1 492
0.5058836 1.813777 0.4702516 1.801351 1.305979 -0.2769907 0.2977938 -3.202535 2.339598 -2.348863 2.893942 -4.8882 2.870617 0.04294033 -1.277547 1.692795 -2.026662 0.3059478 -3.651857 5.87527 -1.623961 -0.0472443 -2.273552 3.051408 -1.720208 3.979915 -2.98758 -2.445435 -0.07155368 -2.018198 2.318694 -2.350635 0.3054759 -2.44666 0.07647344 -2.982352 0.196169 -2.203498 -0.4671035 -2.450001 5.838717 5.77767 1 496
0.8249296 2.001102 0.6586773 1.981589 1.324816 0.07004303 0.044264 -2.787884 2.429474 -2.040106 2.650493 -4.312274 2.596543 0.118643 -1.030184 1.621379 -1.858162 0.3337179 -3.386886 5.804338 -1.613147 0.007564989 -2.435745 2.988864 -1.987214 4.077753 -3.109096 -2.564621 -0.02432201 -2.191859 2.326443 -2.258257 0.2561843 -2.487366 0.04268848 -2.905048 0.2009491 -2.195112 -0.4444856 -2.327326 5.571991 4.026672 1 500
1.211967 2.154543 0.8108999 2.128987 1.378063 0.1518548 -0.2116183 -2.306072 2.361961 -1.586833 2.582821 -3.519856 2.515406 0.2562645 -0.7628769 1.572158 -1.686571 0.4465858 -3.090868 5.511489 -1.628183 0.08833747 -2.605487 2.874554 -2.297914 3.833013 -3.241603 -2.699863 -0.02448414 -2.459322 2.130477 -2.28671 0.1610705 -2.604421 -0.02171818 -2.96923 0.2006818 -2.191321 -0.4696375 -2.159626 5.175658 3.277415 1 504
1.523053 2.181877 0.910691 2.148082 1.390357 0.06809945 -0.3017867 -2.031971 2.254796 -1.372918 2.860142 -3.110248 2.82873 0.3446929 -0.5853064 1.53326 -1.603756 0.6191973 -3.311822 5.025789 -1.757439 0.09238929 -2.961083 2.71626 -2.819773 3.225655 -3.395077 -2.924124 -0.1649205 -2.762475 1.795584 -2.561584 0.08969105 -2.816979 -0.1091408 -3.213654 0.1607459 -2.103072 -0.5252212 -2.125963 4.971599 5.817676 1 508
1.744935 2.144693 0.9114994 2.105992 1.325965 -0.01051756 -0.2331928 -2.065867 2.239816 -1.62544 3.348778 -3.343638 3.367219 0.3281546 -0.5185544 1.510502 -1.716534 0.8285995 -4.081936 4.901233 -1.992588 0.0623371 -3.503455 2.68244 -3.502915 2.67174 -3.577198 -3.217828 -0.3463511 -3.011394 1.533529 -2.926481 -0.00261866 -3.019952 -0.2476565 -3.387484 0.03201814 -1.979006 -0.625184 -2.221098 5.085703 10.33173 1 512
2.031044 2.111299 0.7731389 2.088189 1.288828 0.001521971 -0.1314441 -2.258528 2.239347 -1.873844 3.69898 -3.826536 3.763968 0.2486821 -0.5026974 1.504426 -1.949549 0.9982027 -4.726796 5.426845 -2.258789 0.07346892 -3.933384 2.738375 -3.827718 2.251282 -3.820151 -3.504256 -0.4991285 -3.052367 1.327364 -3.095598 -0.1643206 -3.151592 -0.4245579 -3.280809 -0.1600018 -1.950177 -0.7753613 -2.313104 5.223423 13.69232 1 516
2.280492 2.064254 0.6683283 2.07075 1.370612 0.2462785 0.03951087 -2.377065 2.182867 -1.734548 3.719948 -4.094559 3.818573 0.117537 -0.5163424 1.53989 -2.138224 1.0568 -4.688334 6.21484 -2.504085 0.1125818 -3.992608 2.670717 -3.392775 1.759165 -4.114975 -3.637539 -0.6564513 -2.736634 1.005933 -2.863652 -0.3797574 -3.182327 -0.60037 -2.840514 -0.3766722 -1.968291 -0.9563486 -2.284025 5.053423 14.04363 1 520
2.438144 2.009624 0.7864019 2.026207 1.565733 0.6766052 0.3434325 -2.246595 2.165687 -1.387116 3.588491 -3.977474 3.658692 -0.09722603 -0.5307364 1.601392 -2.185168 1.031666 -4.072341 6.708242 -2.690984 0.1027856 -3.735655 2.435476 -2.481052 1.283299 -4.420557 -3.540753 -0.8679773 -2.189715 0.6025662 -2.373915 -0.6121929 -3.125807 -0.7735523 -2.279284 -0.6259968 -1.955265 -1.173767 -2.250395 4.552117 12.01703 1 524
2.481692 1.979803 0.9743122 1.978158 1.716561 0.9961147 0.5595901 -1.892356 2.337693 -1.07519 3.504259 -3.435756 3.49171 -0.3450382 -0.5240619 1.546017 -2.084809 0.9517596 -3.260285 6.408183 -2.820357 -0.03098729 -3.371904 2.118878 -1.626248 1.100063 -4.661661 -3.343495 -1.125377 -1.684305 0.347035 -1.918372 -0.6776002 -3.092847 -0.8379259 -1.870367 -0.7756388 -1.914274 -1.322835 -2.411076 4.052396 9.558534 1 528
2.304567 1.993673 0.9980724 1.976032 1.665118 1.195893 0.4293775 -1.509051 2.659471 -0.8291047 3.323058 -2.642178 3.282117 -0.5269881 -0.5014277 1.301631 -1.907027 0.7741249 -2.596433 5.140983 -2.900301 -0.2196265 -3.053139 1.745965 -1.172184 1.276707 -4.754033 -3.188171 -1.33413 -1.385834 0.3561235 -1.630762 -0.4276416 -3.110021 -0.6716532 -1.640156 -0.6683534 -1.837577 -1.244217 -2.674927 3.812132 8.189959 1 532
2.2531 2.079431 0.8610014 2.076199 1.480934 1.42902 -0.02964994 -1.169581 2.795931 -0.5318728 2.775569 -1.96857 2.786894 -0.5423141 -0.4006618 1.022841 -1.684881 0.5354063 -2.105216 3.659739 -2.845597 -0.2254385 -2.695312 1.422581 -1.062602 1.629831 -4.644547 -2.989605 -1.35332 -1.23962 0.5290909 -1.377489 -0.05064426 -3.00318 -0.3670186 -1.412476 -0.3967842 -1.699579 -0.9777893 -2.722098 3.617698 6.540689 1 536
2.67656 2.140263 0.8238695 2.167744 1.361225 1.644955 -0.6345533 -0.737812 2.50558 -0.01008671 1.895576 -1.629541 1.930941 -0.3073691 -0.1269507 0.9078627 -1.325741 0.384082 -1.477837 2.760422 -2.57517 0.0566857 -2.079365 1.284574 -0.8488953 1.803916 -4.336267 -2.580294 -1.136575 -1.023582 0.6781403 -0.9337164 0.1540185 -2.641714 -0.1421815 -1.055806 -0.1870912 -1.504765 -0.7135889 -2.436796 3.172623 2.096675 1 540
3.04416 1.982932 1.100805 2.015247 1.335747 1.83454 -1.198203 -0.2242136 1.962116 0.6765602 1.111175 -1.606489 1.104974 0.05932727 0.2476534 0.9130739 -0.8229477 0.317405 -0.7692679 2.238736 -2.182494 0.3859009 -1.28551 1.217879 -0.3240368 1.513495 -3.957249 -2.034712 -0.8753906 -0.6023945 0.677595 -0.3949965 0.1263222 -2.173553 -0.1063539 -0.6271685 -0.1457487 -1.312734 -0.5937456 -2.120058 2.567903 -3.076234 1 544
2.816357 1.638488 1.456857 1.647662 1.278501 2.081184 -1.562598 0.1670005 1.441404 1.195477 0.8118092 -1.69144 0.7620274 0.2977174 0.5077052 0.8363639 -0.3796622 0.1688742 -0.3576741 1.749565 -1.85281 0.4480167 -0.6416531 0.9967402 0.303226 0.7258376 -3.689361 -1.619437 -0.8241028 -0.09140639 0.4598949 -0.1066297 -0.05322993 -1.865553 -0.2466585 -0.3067443 -0.2603234 -1.198244 -0.6688982 -2.123138 1.982571 -4.233715 1 548
2.489233 1.342992 1.577609 1.340295 1.199069 2.309622 -1.657396 0.3136991 1.061023 1.325577 0.9259768 -1.792266 0.8673525 0.3430686 0.6087119 0.7025533 -0.1448291 -0.03527838 -0.4193964 1.48058 -1.669967 0.2514701 -0.3290538 0.6112155 0.774654 -0.3361682 -3.586572 -1.484622 -0.9851962 0.1893661 -0.01792673 -0.3031178 -0.3881955 -1.805646 -0.5645136 -0.303353 -0.5367981 -1.255407 -0.915896 -2.416327 1.501191 -0.2673401 1 552
2.693003 1.185251 1.483389 1.189368 1.188364 2.312854 -1.555273 0.100163 0.8587736 1.053983 1.166197 -2.141462 1.12422 0.3373589 0.6517742 0.7086529 -0.1431514 -0.07807062 -0.9287407 1.721082 -1.609016 0.07647978 -0.3558919 0.289856 0.8689697 -1.119901 -3.54202 -1.55727 -1.141157 0.06018379 -0.5962878 -0.8494101 -0.7634434 -1.854166 -0.9160852 -0.5971346 -0.847924 -1.485234 -1.184442 -2.666368 1.43161 5.430869 1 556
3.044714 1.080762 1.291832 1.080638 1.214534 2.041776 -1.38611 -0.5500721 0.7922124 0.397851 1.343997 -2.861337 1.312335 0.411153 0.6733666 0.9184821 -0.3741511 0.09927595 -1.689702 2.346804 -1.570563 0.114969 -0.6388958 0.2171909 0.5840011 -1.225482 -3.396413 -1.648158 -1.136365 -0.2877676 -0.9398658 -1.325774 -0.8594048 -1.830795 -0.9836511 -0.900963 -0.9044693 -1.696795 -1.249487 -2.598249 2.060205 9.02837 1 560
2.786545 1.005485 1.07015 0.9874794 1.225903 1.6555 -1.194135 -1.371918 0.7454531 -0.4527998 1.405226 -3.565989 1.366353 0.6275322 0.6984764 1.257439 -0.6510046 0.3895505 -2.270285 2.861656 -1.426135 0.3071138 -0.9491894 0.3456901 0.2556966 -0.8746031 -3.100073 -1.637077 -1.004574 -0.5345358 -0.9352424 -1.460093 -0.6444677 -1.713652 -0.7627688 -1.028293 -0.6890512 -1.73977 -1.082079 -2.300481 3.108018 9.288891 1 564
1.984626 1.020509 0.864774 1.001671 1.246332 1.215539 -0.9946832 -1.930728 0.6908758 -0.9987686 1.475481 -3.603414 1.427602 0.9619732 0.756631 1.586388 -0.6705053 0.697033 -2.161399 3.136279 -1.164866 0.4924951 -1.024447 0.549767 0.2209595 -0.4322737 -2.773579 -1.558098 -0.8669038 -0.566627 -0.756551 -1.276048 -0.4446913 -1.612134 -0.5762866 -1.039598 -0.4789 -1.673486 -0.9010374 -2.136048 3.995153 6.317067 1 568
1.364098 1.125883 0.7912867 1.12312 1.322201 0.7787756 -0.8202091 -2.102737 0.7448186 -0.88538 1.626921 -2.824166 1.564783 1.291316 0.863859 1.825858 -0.3720593 0.9589019 -1.27817 3.434177 -0.8726674 0.6245635 -0.8175147 0.7708626 0.4649004 0.01946947 -2.568641 -1.49603 -0.7724138 -0.5520352 -0.5314077 -0.9504006 -0.3926452 -1.569216 -0.5314195 -1.103886 -0.398324 -1.661211 -0.8529182 -2.254858 4.520317 0.392107 1 572
1.326998 1.225495 0.880105 1.236467 1.421364 0.6398165 -0.6463146 -2.179321 1.026055 -0.4051895 1.635182 -1.943636 1.563012 1.534494 0.9952129 2.041051 0.01559058 1.133391 -0.2635132 3.537488 -0.627037 0.7637991 -0.4953335 0.9198745 0.727038 0.465426 -2.488947 -1.493982 -0.7073335 -0.6093784 -0.3304837 -0.6702742 -0.3526554 -1.545458 -0.5323659 -1.208555 -0.3798361 -1.795161 -0.8960494 -2.449917 5.073207 -6.140264 1 576
1.770081 1.346195 0.8581027 1.379344 1.451252 0.8720961 -0.5223308 -2.406013 1.494466 -0.1384825 1.356654 -1.657567 1.302753 1.686826 1.03469 2.241608 0.2339017 1.205478 0.1631544 3.10256 -0.4862978 0.9011536 -0.2607995 0.9140611 0.7979342 0.8675085 -2.425568 -1.551917 -0.7152588 -0.6671972 -0.2550892 -0.5452777 -0.2776595 -1.542948 -0.580673 -1.185852 -0.3997752 -2.013664 -0.985671 -2.533279 5.942023 -9.770457 1 580
2.49179 1.648062 0.6029596 1.710366 1.405346 1.149992 -0.537127 -2.54407 1.889733 -0.2377309 1.018338 -1.89279 1.001989 1.711969 0.9299778 2.289847 0.2337673 1.179043 -0.05324828 2.489244 -0.4355187 0.919706 -0.2257139 0.808042 0.6692181 1.183766 -2.358138 -1.630909 -0.8299736 -0.7132642 -0.2904179 -0.632053 -0.3085398 -1.604431 -0.7271863 -1.123252 -0.5225988 -2.169379 -1.151396 -2.574942 6.573574 -9.344066 1 584
3.375875 2.060189 0.4813205 2.122045 1.385921 1.348797 -0.5785048 -2.208709 1.935531 -0.3899715 0.7788398 -2.185632 0.8049309 1.631207 0.8242952 2.164935 0.1922589 1.065532 -0.4017958 1.987704 -0.3815148 0.7784705 -0.2833192 0.6250038 0.6511565 1.174886 -2.322823 -1.680547 -1.005119 -0.701919 -0.4257984 -0.8485661 -0.5997812 -1.750719 -0.9973751 -1.196877 -0.818862 -2.167369 -1.431715 -2.727501 6.254109 -6.538513 1 588
4.358107 2.340156 0.6880324 2.365782 1.474904 1.609559 -0.4665067 -1.56595 1.652956 -0.3837233 0.6231216 -2.337049 0.6632745 1.567723 0.8781367 2.047363 0.2296882 0.9139499 -0.5406398 1.455207 -0.2813213 0.6005475 -0.2668921 0.3341796 0.9236802 0.7315962 -2.281131 -1.709891 -1.199154 -0.5999112 -0.7326756 -1.047969 -1.077631 -1.931383 -1.356848 -1.363502 -1.230571 -2.065275 -1.767557 -2.956494 5.261296 -3.557168 1 592
5.177176 2.423366 0.988681 2.406649 1.627452 1.957002 -0.1449302 -1.119838 1.32295 -0.3576355 0.6622764 -2.5824 0.6612385 1.58666 1.056383 2.094246 0.2389654 0.8032232 -0.7339819 0.9054042 -0.1863246 0.5245033 -0.2422235 -0.00717525 1.11204 0.09971427 -2.19081 -1.755667 -1.384362 -0.6231709 -1.177144 -1.275571 -1.503258 -2.042047 -1.70172 -1.569274 -1.618427 -1.976987 -2.042771 -3.043302 4.481997 -0.8509246 1 596
5.445749 2.352262 1.305438 2.291451 1.724579 2.222564 0.3046575 -1.0564 1.176754 -0.4392682 0.9249351 -3.135176 0.8821566 1.665703 1.196584 2.322278 0.1214079 0.7704118 -1.205307 0.5548071 -0.147118 0.5830556 -0.3558843 -0.3032381 0.9750078 -0.4361912 -2.060916 -1.789014 -1.495312 -0.8200935 -1.59417 -1.516268 -1.74295 -2.055895 -1.910785 -1.730841 -1.884278 -1.910768 -2.214215 -2.878066 4.348463 1.513788 1 600
5.021021 2.147803 1.476676 2.050268 1.653157 2.041128 0.6566858 -1.490347 1.323967 -0.6134019 1.287081 -3.967745 1.239752 1.763919 1.189074 2.572734 -0.04799695 0.786788 -1.728848 0.9174696 -0.1367386 0.6913379 -0.591787 -0.4061614 0.8009273 -0.5143081 -1.910662 -1.762396 -1.469012 -0.903084 -1.757754 -1.526401 -1.738277 -2.03884 -1.892366 -1.675779 -1.927933 -1.778603 -2.247597 -2.613616 5.002368 2.11746 1 604
4.068904 1.89468 1.213948 1.803975 1.431424 1.277902 0.7052646 -2.413571 1.750278 -0.7479869 1.640665 -4.519073 1.590052 1.870061 1.076354 2.643668 -0.08742905 0.7978148 -1.825523 2.180129 -0.06564213 0.7370049 -0.7542383 -0.2582569 0.8430185 -0.05030222 -1.777491 -1.650453 -1.350984 -0.7491571 -1.599755 -1.188802 -1.476173 -2.001822 -1.68655 -1.444157 -1.728789 -1.51482 -2.099268 -2.42277 6.351825 -0.4639057 1 608
3.019547 1.74297 0.7975972 1.699729 1.28032 0.520942 0.4507178 -3.156324 2.122904 -0.5654595 1.775962 -4.043314 1.714826 2.02641 1.037531 2.568493 0.1298265 0.7640798 -1.214856 3.356866 0.1079311 0.7317537 -0.6464016 -0.09912645 0.9856901 0.3856302 -1.718597 -1.446764 -1.277142 -0.5239025 -1.371837 -0.689639 -1.149238 -1.885762 -1.472966 -1.241197 -1.451404 -1.182489 -1.862188 -2.292389 7.490344 -5.419116 1 612
2.394583 1.774613 0.666443 1.777465 1.31755 0.4015457 0.04452853 -3.130784 2.136361 -0.1381745 1.512344 -2.927657 1.460584 2.280976 1.179357 2.524463 0.4695915 0.6886483 -0.384011 3.33505 0.3066047 0.7877815 -0.3167112 -0.181816 1.027904 0.3317778 -1.727559 -1.208262 -1.316486 -0.3520126 -1.382357 -0.3146197 -1.039195 -1.67934 -1.436686 -1.083897 -1.332978 -0.9233046 -1.739643 -2.124122 7.689348 -9.36787 1 616
2.501671 1.888267 0.7922701 1.91178 1.358955 0.7649361 -0.3900717 -2.601259 1.951176 0.048412 0.9781414 -2.205404 0.9475878 2.591959 1.369159 2.539373 0.6744236 0.6262779 -0.00294499 2.246393 0.4168496 0.9228014 0.0377165 -0.4451657 1.007446 -0.1227884 -1.74107 -0.9804556 -1.403369 -0.1724656 -1.696327 -0.1428022 -1.230557 -1.453255 -1.625863 -0.8170919 -1.479063 -0.7630853 -1.824345 -1.876442 7.318017 -9.919827 1 620
3.286695 1.943702 0.9900978 1.966508 1.245181 1.132158 -0.743081 -2.010669 1.822388 -0.08162106 0.5486031 -2.005533 0.5300347 2.769056 1.435136 2.47343 0.7088515 0.5737341 0.02045644 1.121603 0.3950314 0.9606619 0.3016124 -0.6829419 1.11039 -0.6720844 -1.801239 -0.7925496 -1.505485 0.0827964 -2.116039 -0.02330927 -1.609835 -1.325907 -1.936521 -0.3993596 -1.795975 -0.616545 -2.041676 -1.655983 6.767508 -8.3693 1 624
4.18095 1.939495 1.162373 1.948992 1.045265 1.296833 -0.8819003 -1.506314 1.829761 -0.2057341 0.5309248 -1.723087 0.528977 2.644694 1.406345 2.203524 0.717917 0.4579339 0.1984045 0.6954073 0.2671206 0.7520162 0.4340327 -0.7916019 1.408629 -0.9605686 -2.020707 -0.760442 -1.698138 0.3344606 -2.358005 0.1563741 -1.94347 -1.37749 -2.174606 -0.01573875 -2.067533 -0.4617985 -2.235611 -1.650274 6.066906 -7.374274 1 628
4.39775 1.887419 1.185898 1.875746 0.8114612 1.200172 -0.8638561 -1.300036 1.947369 -0.3434249 0.8544756 -1.493728 0.8820986 2.314265 1.368244 1.784582 0.7317392 0.3254266 0.3641224 0.8584046 0.0869998 0.4489917 0.3887099 -0.7307065 1.652836 -0.765371 -2.286229 -0.9302782 -1.886972 0.4277785 -2.261228 0.3048412 -1.961637 -1.522215 -2.135215 0.1788387 -2.062291 -0.3166838 -2.227691 -1.799201 5.57965 -6.971076 1 632
3.958257 1.815016 1.060021 1.779033 0.5470884 0.9534857 -0.8567622 -1.538093 2.060632 -0.6998084 1.208898 -1.900856 1.272854 2.024855 1.329796 1.419409 0.6397834 0.2963472 -0.0240091 1.19617 -0.1063521 0.3120073 0.1451993 -0.4863962 1.425753 -0.1981376 -2.370886 -1.193214 -1.832142 0.3053216 -1.889761 0.3171252 -1.671699 -1.615354 -1.837265 0.2608083 -1.786545 -0.1985306 -2.01133 -1.776154 5.655843 -5.990396 1 636
3.521005 1.763602 1.010345 1.703221 0.3847876 0.8078611 -0.8757806 -1.956215 2.097114 -1.150879 1.353659 -2.510579 1.443873 1.932493 1.311733 1.26186 0.4397677 0.3811657 -0.6856482 1.650439 -0.2665302 0.4048445 -0.1901934 -0.1406565 0.7456551 0.3387738 -2.294378 -1.421682 -1.52178 0.05314805 -1.464481 0.2675857 -1.33682 -1.641725 -1.501913 0.3148129 -1.467091 -0.1545724 -1.740651 -1.47014 6.064768 -5.460834 1 640
3.276913 1.640732 1.120222 1.554304 0.3948018 0.7622025 -0.8385544 -2.152106 2.106793 -1.410327 1.230309 -2.725259 1.306585 2.048135 1.304226 1.252787 0.3008161 0.5283224 -1.041597 2.238473 -0.3035789 0.6014802 -0.4548176 0.1658193 0.1469127 0.5930954 -2.202033 -1.545927 -1.181005 -0.2176555 -1.153947 0.2190149 -1.112946 -1.665202 -1.263986 0.2815 -1.231143 -0.2045269 -1.504193 -1.175093 6.400106 -6.089695 1 644
3.254728 1.459763 1.179271 1.348494 0.4350456 0.6670168 -0.6742404 -1.932128 2.136111 -1.317007 1.040511 -2.56795 1.069957 2.267449 1.274658 1.185439 0.3643087 0.7020996 -0.9500631 2.706455 -0.1827402 0.7072997 -0.5542151 0.3308089 0.0419079 0.5955014 -2.157821 -1.601415 -1.009004 -0.4233596 -1.026044 0.1479069 -1.025536 -1.759411 -1.160293 0.09875765 -1.122891 -0.3301362 -1.373889 -1.189114 6.442522 -7.098738 1 648
3.628517 1.423694 0.9994453 1.301954 0.3639178 0.5425289 -0.4586557 -1.495325 2.067743 -0.9362061 1.041918 -2.09978 1.021902 2.468016 1.254318 0.9831711 0.57953 0.877051 -0.482704 2.917364 0.02554309 0.6921359 -0.4446578 0.3569682 0.3459121 0.3686583 -2.125986 -1.617405 -1.00079 -0.4968645 -1.090144 0.07505243 -1.069734 -1.930209 -1.17817 -0.1807463 -1.163519 -0.5136098 -1.411461 -1.471227 6.158957 -8.327176 1 652
4.22411 1.543174 0.6372495 1.434212 0.19694 0.4619777 -0.39978 -1.323089 1.834466 -0.4707452 1.215701 -1.477378 1.184186 2.609521 1.270189 0.7784922 0.7450901 1.056076 0.1157162 3.006029 0.2014264 0.7363962 -0.1928164 0.3636835 0.6652794 0.1041549 -2.005924 -1.547356 -0.9889759 -0.4638285 -1.210211 0.03816149 -1.175 -2.047886 -1.240749 -0.4085855 -1.264656 -0.7461212 -1.556435 -1.750206 5.877887 -10.03032 1 656
4.727895 1.571273 0.3857938 1.481601 0.04166859 0.4820461 -0.5090621 -1.568531 1.657942 -0.06780518 1.389009 -1.120095 1.399986 2.702336 1.311141 0.7218285 0.7198067 1.22465 0.4913267 3.091335 0.2466173 0.9017152 0.005640854 0.4295704 0.743085 0.03886845 -1.816007 -1.442683 -0.8895665 -0.4365174 -1.228066 0.05394671 -1.256874 -2.003362 -1.305326 -0.4425614 -1.344614 -0.9745589 -1.694928 -1.80732 6.000041 -11.91123 1 660
4.912629 1.430755 0.5091084 1.330494 -0.04293379 0.6343189 -0.5506957 -1.856482 1.733078 0.06244037 1.582013 -1.351651 1.626634 2.726172 1.298473 0.8197445 0.5423961 1.312097 0.4484816 3.286525 0.1768125 1.01458 0.02948863 0.5039155 0.6656396 0.2083752 -1.723865 -1.4331 -0.8118406 -0.491961 -1.097445 0.08969233 -1.300307 -1.895301 -1.369779 -0.3374682 -1.399405 -1.100108 -1.748972 -1.718836 6.392204 -13.10584 1 664
0.6096817 -1.874123 -0.4313887 -0.9886402 -0.4577537 -0.3133112 -2.267386 1.569293 -0.06124549 -1.425443 -0.1316424 -1.283188 -0.08410254 2.662113 2.349659 0.8949667 2.334285 1.107943 -1.376136 -0.06088183 3.6092 3.349767 -1.291625 -1.412843 -1.152005 -1.434342 5.398264 2.020243 -1.149084 -1.273047 -1.672072 -1.329087 -0.8768284 -0.8426797 1.213261 -1.191202 0.1360171 -1.168377 0.2161312 0.2259665 -0.4486845 -1.700014 2 -168
0.3912369 -1.772777 -0.5494587 -1.220085 -0.3052155 -0.06107534 -2.17342 1.662105 -0.2673057 -1.353682 -0.3434787 -1.238025 -0.2576976 3.153554 2.802507 0.9968344 2.984379 1.058465 -1.344048 -0.2385163 4.368988 3.417219 -1.390388 -1.628143 -1.241754 -1.643956 5.689569 2.432808 -1.417558 -1.321548 -2.119989 -1.386438 -1.197285 -0.9135332 0.7660255 -1.270492 -0.17132 -1.232267 -0.08436424 -0.03200286 -0.5292467 -1.019261 2 -164
0.04816658 -1.739605 -0.8618171 -1.609196 -0.3300706 0.1206627 -2.384161 1.511174 -0.4007146 -1.326416 -0.4647194 -1.250368 -0.3895197 3.398954 3.058935 0.7279109 3.398175 0.7263038 -1.366606 -0.2962861 5.088063 3.408766 -1.460936 -1.653436 -1.324063 -1.704059 5.990068 2.759118 -1.540445 -1.375314 -2.374807 -1.437247 -1.314592 -0.9487782 0.6888383 -1.326789 -0.1873665 -1.282604 -0.08866154 -0.03521262 -0.5094367 0.05726615 2 -160
-0.2037337 -1.941967 -1.001679 -1.937104 -0.455032 0.1586987 -2.685821 1.258097 -0.5212452 -1.26871 -0.5900607 -1.231405 -0.5263606 3.423465 3.113467 0.2679888 3.712914 0.2408968 -1.323576 -0.3636135 5.748957 3.308172 -1.454683 -1.671768 -1.337105 -1.773649 6.313043 2.985885 -1.470391 -1.395963 -2.512004 -1.458087 -1.326233 -0.971117 0.862368 -1.31659 -0.07133293 -1.293396 0.0527375 -0.05882213 -0.4554469 1.170103 2 -156
-0.5068316 -2.365168 -0.9348951 -2.191468 -0.6750028 0.04806419 -2.914234 1.047145 -0.7111533 -1.171176 -0.7734103 -1.155017 -0.6730807 3.316473 3.028975 -0.1542859 4.05582 -0.2630343 -1.192317 -0.5505503 6.275198 3.097631 -1.396029 -1.604636 -1.331276 -1.742385 6.536196 3.124055 -1.193666 -1.372808 -2.327166 -1.440196 -1.109572 -1.005119 1.17661 -1.290359 0.2444904 -1.29035 0.3490545 -0.1479722 -0.5926058 1.774773 2 -152
-1.002273 -2.817957 -0.9799168 -2.458397 -0.9976013 -0.2402798 -3.206238 0.6845788 -0.9202432 -1.238592 -0.9565241 -1.213988 -0.8058348 3.186655 2.883048 -0.4531306 4.386745 -0.7485939 -1.230822 -0.8075277 6.68651 2.857019 -1.30846 -1.342942 -1.346979 -1.483051 6.602702 3.213499 -0.7671587 -1.329632 -1.75112 -1.361225 -0.5895277 -0.9887617 1.625876 -1.259903 0.8703728 -1.257965 0.9363129 -0.07262716 -0.9296433 1.93342 2 -148
-1.581178 -3.089142 -1.302188 -2.737036 -1.303365 -0.6852567 -3.614302 0.1096912 -1.0129 -1.425984 -1.053204 -1.344909 -0.8639126 3.085039 2.706986 -0.7355624 4.539649 -1.140054 -1.405161 -0.9491211 6.994759 2.75946 -1.236694 -0.9876962 -1.349917 -1.09686 6.633138 3.282769 -0.3188601 -1.31075 -1.092791 -1.259396 -0.04231964 -0.937298 2.168155 -1.230389 1.571622 -1.196985 1.591739 0.1516048 -1.205439 1.9138 2 -144
-2.057166 -3.200243 -1.785828 -2.97435 -1.543388 -1.117929 -4.064806 -0.4546869 -0.9803572 -1.472162 -1.068332 -1.354805 -0.839013 2.940897 2.425292 -1.146548 4.360563 -1.478968 -1.470003 -0.891193 7.088086 2.77718 -1.214715 -0.6668801 -1.331601 -0.7303519 6.73135 3.291192 0.0545518 -1.32367 -0.467774 -1.190143 0.4065436 -0.9239895 2.752865 -1.215458 2.219239 -1.152452 2.175349 0.372573 -1.178743 1.699667 2 -140
-2.265371 -3.280307 -2.20532 -3.111842 -1.782158 -1.487159 -4.526167 -0.8515833 -0.9262468 -1.364166 -1.072488 -1.280259 -0.8077963 2.616248 1.956353 -1.62892 3.888859 -1.895395 -1.422523 -0.7554343 6.891713 2.659718 -1.196341 -0.3735509 -1.298195 -0.3912375 6.781383 3.180006 0.3748074 -1.339711 0.3119611 -1.145648 0.9464635 -0.9234625 3.348993 -1.174836 2.971045 -1.126049 2.878247 0.5806682 -1.166317 1.411581 2 -136
-2.059305 -3.281994 -2.3579 -2.97971 -1.978603 -1.815872 -4.880369 -0.9873184 -1.014063 -1.239824 -1.190963 -1.186852 -0.9293147 2.085165 1.352228 -1.980965 3.399892 -2.280552 -1.327211 -0.7943025 6.49342 2.306404 -1.061517 -0.1042819 -1.139113 -0.08664846 6.554934 2.961247 0.6587027 -1.250208 1.141467 -1.034248 1.505612 -0.8297874 3.770133 -0.9991328 3.671587 -1.010662 3.542766 0.7180166 -1.625972 1.26483 2 -132
-1.61816 -3.184537 -2.275827 -2.60899 -2.100567 -2.062662 -5.038457 -0.7991608 -1.311689 -1.156502 -1.479848 -1.098071 -1.260083 1.479141 0.7458017 -2.146345 3.060478 -2.433045 -1.189013 -1.105654 5.97336 1.862895 -0.7952568 0.1902058 -0.8015716 0.2274551 5.967015 2.641631 0.894351 -0.9837152 1.787665 -0.8040457 1.916457 -0.6054139 3.934394 -0.6901645 4.13585 -0.7530655 3.962987 0.7636057 -2.312284 1.070227 2 -128
-1.450987 -3.05469 -2.201552 -2.339109 -2.186344 -2.256915 -4.981942 -0.5196934 -1.580516 -1.127538 -1.735385 -1.043267 -1.543681 0.922739 0.242825 -2.240637 2.678321 -2.34643 -1.056439 -1.396065 5.297969 1.49237 -0.5732941 0.6545862 -0.490381 0.6926885 5.142984 2.184472 1.107307 -0.6915843 2.331515 -0.5720344 2.276336 -0.3736356 4.047126 -0.4446616 4.509554 -0.5146401 4.308377 0.8398802 -2.728681 0.7203515 2 -124
-1.550644 -2.804438 -2.213893 -2.301606 -2.197117 -2.396846 -4.642034 -0.3950376 -1.506774 -1.068972 -1.653584 -0.9493369 -1.464227 0.4807252 -0.08508357 -2.33113 2.070078 -2.144837 -0.9171656 -1.2876 4.446499 1.159448 -0.5688746 1.161256 -0.4477091 1.192754 4.290954 1.602543 1.267779 -0.6095142 2.860294 -0.5380905 2.638569 -0.3383628 4.207438 -0.4151095 4.83547 -0.4975254 4.662842 0.9152048 -2.857341 0.3911612 2 -120
-1.347785 -2.296262 -2.101785 -2.205626 -2.029306 -2.31309 -4.001711 -0.2412345 -1.041292 -0.8704664 -1.170325 -0.7269304 -0.9864769 0.1991673 -0.1928104 -2.272855 1.378541 -1.917975 -0.7061005 -0.7637293 3.484611 0.725411 -0.8773407 1.455567 -0.7742445 1.488819 3.493766 0.9114338 1.317119 -0.873938 3.228404 -0.8710374 2.854139 -0.6572243 4.285378 -0.6749306 4.958959 -0.8147249 4.850228 0.7704695 -2.890895 0.2182208 2 -116
-0.7861895 -1.729725 -1.774897 -1.869957 -1.73942 -1.977116 -3.264801 0.1726449 -0.5092962 -0.643141 -0.6125577 -0.4905024 -0.4510932 0.02376578 -0.1560453 -1.979198 0.7984135 -1.696428 -0.5227509 -0.2505375 2.457926 0.1961473 -1.266026 1.536238 -1.193961 1.551695 2.634481 0.1271794 1.256821 -1.241608 3.36246 -1.313084 2.917583 -1.096175 4.2165 -1.024318 4.907315 -1.227342 4.836079 0.5034838 -2.934712 0.25169 2 -112
-0.3610712 -1.39819 -1.449752 -1.508768 -1.498686 -1.608086 -2.624167 0.594843 -0.2414877 -0.5408545 -0.2981129 -0.4084489 -0.1867195 -0.1347953 -0.09788699 -1.588618 0.3920023 -1.380094 -0.4815604 -0.08537362 1.405854 -0.2129491 -1.374164 1.524889 -1.335085 1.498887 1.643559 -0.6335352 1.165569 -1.341631 3.339481 -1.440814 2.95081 -1.260005 4.075439 -1.144119 4.807043 -1.362027 4.745453 0.4188474 -3.020171 0.4535725 2 -108
-0.3594538 -1.205685 -1.263373 -1.280604 -1.241431 -1.316993 -1.954051 0.5700114 -0.1365517 -0.5525622 -0.1399819 -0.4783785 -0.09504188 -0.2608662 -0.0178921 -1.139457 0.1273707 -0.7614003 -0.5218216 -0.07438707 0.4928814 -0.2669458 -1.360406 1.545562 -1.385184 1.495613 0.7216049 -1.227207 1.161262 -1.336124 3.247794 -1.451229 2.908244 -1.268983 3.926314 -1.224574 4.619742 -1.384438 4.553653 0.5113377 -3.006943 0.8298153 2 -104
-0.6444548 -1.013575 -1.168014 -1.127184 -0.8598171 -1.145531 -1.209656 0.1127444 -0.09162703 -0.6864955 -0.05952649 -0.6518071 -0.08133394 -0.3592465 0.08439164 -0.6247338 -0.1381767 0.1074213 -0.6313462 -0.07788272 -0.159432 -0.01368872 -1.458498 1.609041 -1.560408 1.552419 0.1378797 -1.605359 1.27837 -1.466406 3.227319 -1.603082 2.819793 -1.34486 3.825253 -1.458697 4.436969 -1.516407 4.338482 0.6886865 -2.837379 1.376691 2 -100
-0.7785017 -0.8503668 -1.060395 -0.8380244 -0.4421673 -1.116015 -0.5548984 -0.2603536 -0.2652775 -0.8391389 -0.2101279 -0.7947514 -0.2953453 -0.5086216 0.1556364 -0.1177534 -0.4601899 0.8689069 -0.7536663 -0.2926905 -0.6735322 0.2263262 -1.526011 1.555164 -1.633883 1.501682 -0.169668 -1.836658 1.441139 -1.571442 3.263977 -1.689114 2.762424 -1.371111 3.747003 -1.58497 4.35642 -1.563798 4.219721 0.8711457 -2.748273 1.836562 2 -96
-0.5585756 -0.6335505 -0.8127779 -0.2669462 -0.0124272 -1.012941 0.03635194 -0.2047785 -0.5646689 -0.7442375 -0.5093805 -0.6933249 -0.6226517 -0.6825967 0.2364165 0.4212453 -0.69037 1.259904 -0.6606126 -0.6036507 -1.198099 0.2054191 -1.46628 1.28031 -1.51057 1.243008 -0.4810846 -2.013074 1.501798 -1.536652 3.146523 -1.599559 2.613775 -1.283897 3.487919 -1.500362 4.149056 -1.464203 4.017928 0.9069926 -2.893206 1.714669 2 -92
-0.3529342 -0.3492488 -0.4561413 0.2668839 0.4026146 -0.7201106 0.549186 0.06473053 -0.6252741 -0.4265468 -0.5815739 -0.3809942 -0.6682035 -0.7995762 0.3568971 0.9264915 -0.7666613 1.287897 -0.3593431 -0.5867109 -1.682162 -0.007052682 -1.317829 0.9202304 -1.329528 0.874164 -0.8565783 -2.156007 1.364088 -1.396368 2.813635 -1.413365 2.331238 -1.156767 2.931106 -1.341365 3.638075 -1.335335 3.577622 0.8237435 -3.20075 1.137432 2 -88
-0.3919633 -0.1537199 -0.1836332 0.430003 0.6194587 -0.4233967 0.7191135 0.1569478 -0.4144364 -0.105671 -0.3690163 -0.04542291 -0.4053445 -0.9369829 0.370422 1.069738 -0.8951819 1.140487 -0.05521041 -0.2541663 -2.048319 -0.1340779 -1.033657 0.7082973 -1.065665 0.6200553 -1.15481 -2.213286 1.177948 -1.095043 2.336462 -1.092293 1.9905 -0.948953 2.322603 -1.07227 2.923273 -1.085324 2.954398 0.7845531 -3.515797 0.769712 2 -84
-0.4115306 -0.08052489 -0.1492593 0.3454803 0.5515239 -0.2598082 0.4494713 -0.01626998 -0.2895724 0.130166 -0.229723 0.1968783 -0.2356862 -1.231345 0.1482456 0.7273144 -1.279947 0.9851372 0.1507971 -0.05016738 -2.31814 -0.02006695 -0.6286087 0.7455147 -0.672313 0.6500279 -1.20985 -2.06638 1.228337 -0.6706742 1.869675 -0.6639063 1.688207 -0.6195546 2.089857 -0.663617 2.325073 -0.6657715 2.402421 0.8608027 -3.643105 0.5308093 2 -80
-0.2950339 -0.07014904 -0.3255484 0.2180806 0.3006501 -0.2166149 0.01116398 -0.2011524 -0.3902915 0.2832062 -0.2973888 0.3313804 -0.3000615 -1.668054 -0.2361372 0.1838935 -1.778952 0.8172392 0.2601693 -0.1268025 -2.479669 0.2022288 -0.2760445 0.959487 -0.2901303 0.9132267 -0.9552597 -1.660688 1.54689 -0.305193 1.608355 -0.3026642 1.535181 -0.2939596 2.271315 -0.291419 2.063404 -0.2853949 2.144401 0.9746902 -3.617916 0.039421 2 -76
-0.1548194 -0.09370866 -0.5330263 0.05546634 -0.03886076 -0.2309305 -0.3370417 -0.06709009 -0.5592479 0.4744293 -0.4539661 0.5072449 -0.4465543 -2.129441 -0.6709238 -0.2970638 -2.066577 0.5201965 0.4318278 -0.3286457 -2.533577 0.2865126 0.0537589 1.099162 0.09300959 1.092653 -0.5508478 -1.102457 1.801926 0.05970573 1.488663 0.05723803 1.460843 0.05453154 2.408671 0.07924474 1.904455 0.05849668 1.964192 1.033882 -3.728496 -0.6621948 2 -72
-0.007455685 -0.1467149 -0.6483798 -0.2519789 -0.3907979 -0.2967151 -0.6195984 0.4047741 -0.7323433 0.7202762 -0.679394 0.7403549 -0.6461366 -2.472486 -1.067267 -0.7051974 -2.071193 0.03385454 0.7031375 -0.5789203 -2.53693 0.1630524 0.567589 0.9043656 0.6585723 0.9040825 -0.152205 -0.5200819 1.701766 0.5941878 1.33216 0.6242381 1.339666 0.6119156 2.187871 0.6614118 1.602761 0.5876741 1.646382 1.128642 -3.99247 -1.302464 2 -68
0.101553 -0.2799406 -0.6093978 -0.5882825 -0.5606395 -0.407763 -0.8325113 0.8330036 -0.8882965 0.8190725 -0.8969094 0.8123179 -0.8312587 -2.540663 -1.255691 -1.029463 -1.910046 -0.4712531 0.8226082 -0.7810077 -2.398149 0.02738508 1.089048 0.4525751 1.216204 0.4712004 0.3218924 0.05207836 1.340014 1.088584 1.10662 1.189044 1.154024 1.181995 1.714849 1.23221 1.199804 1.125039 1.261494 1.255186 -4.000622 -1.586022 2 -64
0.1828186 -0.4305309 -0.3596531 -0.5190882 -0.4098881 -0.3810684 -0.7595382 0.8891962 -0.9068902 0.6837243 -0.9255626 0.6454923 -0.833828 -2.322406 -1.150153 -1.152782 -1.619281 -0.6956238 0.6548365 -0.8060709 -2.01909 0.07764476 1.24428 0.06595616 1.370964 0.1253141 0.9126531 0.5966618 0.9659161 1.223982 0.7051373 1.360172 0.8145719 1.371545 1.151853 1.383252 0.6583893 1.289365 0.7168165 1.178345 -3.53561 -1.440959 2 -60
0.3448142 -0.4190563 0.007001847 -0.02101631 -0.1006175 -0.1096148 -0.3417359 0.6833484 -0.7688425 0.4324426 -0.7710159 0.3774897 -0.6899125 -1.977655 -0.9125623 -1.078655 -1.22013 -0.6510155 0.3405776 -0.7143629 -1.57863 0.1882572 1.150569 -0.1685631 1.22107 -0.1017367 1.398969 1.012022 0.6260753 1.127633 0.060652 1.234099 0.3341311 1.252777 0.5680274 1.230143 -0.01046741 1.176755 0.02256101 0.913816 -2.922388 -1.144883 2 -56
0.5560651 -0.2340809 0.2860213 0.3537979 0.1229405 0.2289002 0.1007247 0.5301142 -0.6032765 0.2303969 -0.6163779 0.1790366 -0.5674261 -1.579939 -0.7071291 -0.9326756 -0.7251241 -0.6189721 0.1032119 -0.6507697 -1.238893 0.1308093 1.146787 -0.4080068 1.13228 -0.3785089 1.56198 1.224114 0.2371578 1.104406 -0.5748878 1.153499 -0.07506513 1.14025 0.03822856 1.1419 -0.5557832 1.108545 -0.5214536 0.6255276 -2.369296 -1.07892 2 -52
0.722067 -0.01506186 0.4036444 0.38072 0.206617 0.4893345 0.1879883 0.5492403 -0.446197 0.1791218 -0.4718578 0.1345225 -0.4515758 -1.086341 -0.4888172 -0.7773883 -0.1332439 -0.6456556 0.06291478 -0.5602463 -0.9139333 -0.03199381 1.20233 -0.6700376 1.153049 -0.6680236 1.381202 1.293358 -0.2040499 1.143088 -1.086984 1.148733 -0.4540158 1.075924 -0.447753 1.136998 -1.007613 1.114746 -0.9965013 0.3320775 -1.655269 -1.084425 2 -48
0.7595177 0.132277 0.4535072 0.2730954 0.2100101 0.6946817 -0.04033865 0.5856575 -0.2184913 0.2051699 -0.1993885 0.1514737 -0.2158135 -0.4811225 -0.1856501 -0.6254579 0.4196152 -0.5830667 0.1047904 -0.2907625 -0.4797873 -0.1096056 1.108516 -0.8255692 1.112316 -0.8271227 1.025103 1.328196 -0.6092082 1.056097 -1.630089 1.05544 -0.9916191 0.9261635 -0.9494495 1.01442 -1.608196 1.056344 -1.668398 0.07338267 -0.5709794 -0.6357387 2 -44
0.616232 0.2371991 0.5233148 0.1531003 0.217473 0.838389 -0.1222036 0.4399207 0.1944115 0.1170629 0.2567855 0.05359274 0.2186402 0.2380048 0.154768 -0.4311357 0.8174812 -0.3693715 0.0213387 0.209196 0.1276096 -0.02224758 0.7418942 -0.8032623 0.8303198 -0.7933025 0.7333402 1.378986 -0.8550203 0.7182141 -2.149365 0.7396553 -1.624451 0.5588706 -1.406929 0.6431541 -2.286494 0.7760621 -2.406025 -0.2593546 0.9204285 0.05371449 2 -40
0.440853 0.4461336 0.5780717 0.156485 0.2878269 0.8974543 0.1686762 0.2074183 0.7468132 -0.00460512 0.7817822 -0.04714023 0.7599554 1.035315 0.4353938 -0.1088755 1.13447 -0.06170714 -0.06692911 0.7866192 0.8752984 0.1535059 0.1464324 -0.6929315 0.2875507 -0.661952 0.5261675 1.380103 -0.9370489 0.1682706 -2.508372 0.2050346 -2.191645 -0.003326951 -1.837156 0.07970804 -2.84651 0.2444569 -2.994676 -0.8423457 2.610259 0.2647408 2 -36
0.3522022 0.7020263 0.5406627 0.3233054 0.3622399 0.8432884 0.5446138 0.03945235 1.061543 0.05726786 1.067432 0.04449018 1.05275 1.80569 0.6226189 0.3229983 1.473837 0.1572149 0.0619466 1.057821 1.650326 0.2103879 -0.3583865 -0.6708477 -0.2237408 -0.6379679 0.2703067 1.280491 -1.02258 -0.3013729 -2.677701 -0.2695249 -2.522339 -0.4679959 -2.354907 -0.3684009 -3.136836 -0.2544888 -3.284549 -1.484918 4.081045 0.05034091 2 -32
0.1579717 0.745944 0.4182983 0.3955516 0.3637437 0.6592451 0.7718533 -0.1700549 0.9377476 0.1977458 0.9526392 0.1786566 0.9251389 2.434349 0.7749543 0.7426561 1.864018 0.1891086 0.2444777 0.8700653 2.39578 0.1128455 -0.4950221 -0.7704169 -0.4168254 -0.7508332 -0.01120259 1.165676 -1.237583 -0.4183356 -2.65498 -0.3976543 -2.564922 -0.600764 -2.908929 -0.4740112 -3.159252 -0.4435398 -3.294683 -1.914431 5.037153 0.1478198 2 -28
-0.1442273 0.6180113 0.3099027 0.3390164 0.3158063 0.5053866 0.8428512 -0.4278549 0.6334234 0.2429311 0.6250162 0.2128028 0.6237194 2.819301 0.8896559 0.9915689 2.19381 0.1383523 0.2754225 0.4902906 3.042665 0.05910665 -0.3216684 -0.9201475 -0.2989971 -0.9058151 -0.2127768 1.086777 -1.570025 -0.2174771 -2.605592 -0.2209048 -2.552626 -0.4473022 -3.383417 -0.318047 -3.21008 -0.3355185 -3.340218 -2.094596 5.427528 0.8429546 2 -24
-0.2354942 0.5506036 0.3186362 0.3087067 0.2151479 0.4744195 0.6841819 -0.658894 0.4684066 0.1283682 0.3948109 0.1253783 0.4408997 2.907588 0.8908932 0.9722124 2.249177 0.04394476 0.1435505 0.2544425 3.440899 0.1163551 -0.04013805 -1.057498 -0.06864763 -1.034731 -0.3207218 1.000076 -1.889292 0.06619202 -2.588843 0.02291957 -2.542617 -0.1596353 -3.64786 -0.07183396 -3.320287 -0.08229493 -3.398567 -1.976078 5.43303 1.443008 2 -20
-0.09950218 0.5118713 0.4483415 0.2283678 0.02031801 0.4345109 0.3156294 -0.8739528 0.5642429 -0.1420537 0.4384788 -0.1192755 0.4966719 2.760108 0.7570265 0.7657109 1.991434 -0.1818548 -0.1169169 0.3312025 3.527155 0.1055156 0.1460052 -1.081576 0.04769097 -1.042761 -0.3786953 0.9003448 -2.045841 0.2083485 -2.292166 0.1422572 -2.278065 0.07787201 -3.577225 0.1095681 -3.110332 0.1111672 -3.09034 -1.598625 5.365539 1.223725 2 -16
0.0765954 0.3813476 0.6583747 0.0788261 -0.217314 0.3011406 -0.01917067 -0.9042607 0.8220721 -0.4225517 0.6770153 -0.4155846 0.7183684 2.518924 0.5274233 0.5366543 1.591992 -0.582706 -0.3927543 0.6217381 3.384433 -0.1767415 0.1343143 -0.9542698 0.0008797104 -0.9112195 -0.4601857 0.7749231 -2.051721 0.1688893 -1.547003 0.1039383 -1.70092 0.1381498 -3.268417 0.1446134 -2.48048 0.1248309 -2.37086 -1.211737 5.348236 0.2533772 2 -12
0.07483649 0.2458496 0.7850338 -0.1486824 -0.4568798 0.08446576 -0.1922247 -0.7937953 1.100689 -0.6516194 0.9638223 -0.6633151 0.9727294 2.258357 0.2673833 0.2928026 1.197531 -1.10009 -0.5941482 0.9498993 3.092083 -0.672261 0.06099985 -0.7493405 -0.06041905 -0.71528 -0.6202019 0.5345029 -1.975088 0.09869064 -0.6524427 0.0521249 -0.9919603 0.1135138 -2.814278 0.114978 -1.658838 0.08177611 -1.431369 -0.8259147 5.39271 -0.9670599 2 -8
-0.3110333 0.1989662 0.5754141 -0.5456828 -0.7069628 -0.130708 -0.3528886 -0.9180908 1.235383 -0.8784621 1.113428 -0.879496 1.08226 1.998833 0.002199368 -0.07210491 0.8217096 -1.588349 -0.7506813 1.131584 2.722097 -1.077618 0.12962 -0.5276386 0.00722184 -0.5185778 -0.7354071 0.1656813 -1.813967 0.1526789 0.009249124 0.1636751 -0.3541066 0.1946184 -2.148238 0.1733914 -0.8665163 0.176819 -0.4687802 -0.2434716 5.61563 -1.782312 2 -4
-0.7531916 0.1525961 0.1901519 -0.8926262 -0.9014294 -0.2386903 -0.6230053 -1.175831 1.04859 -1.063238 0.929035 -1.053604 0.8715026 1.814043 -0.2422492 -0.4761963 0.3629938 -1.927824 -0.8944164 0.9781891 2.387952 -1.251929 0.3543431 -0.3335534 0.2114704 -0.3831311 -0.644516 -0.2308669 -1.595393 0.3480552 0.3890446 0.4175425 0.08317396 0.4058361 -1.359359 0.3722412 -0.254861 0.421517 0.2844049 0.4459828 5.883941 -2.056903 2 0
-0.809832 0.08696124 -0.03213259 -0.9804916 -1.004898 -0.3160219 -0.9595116 -1.16783 0.7364205 -1.135282 0.6080566 -1.113341 0.5716342 1.712891 -0.4011266 -0.7025231 -0.2117352 -2.121807 -0.9814301 0.693818 2.053311 -1.359555 0.5466539 -0.2304915 0.3885417 -0.3198099 -0.4768052 -0.6679757 -1.380595 0.5253346 0.6752468 0.5916757 0.3968198 0.5504864 -0.6401153 0.5552134 0.2202948 0.6220174 0.8216776 0.9577433 5.890577 -2.192379 2 4
-0.6104745 0.0697104 -0.1665988 -0.9770293 -1.075704 -0.5481579 -1.282773 -0.8278334 0.6553851 -1.050989 0.516884 -0.9993914 0.5538619 1.644485 -0.4784138 -0.6977872 -0.7107005 -2.206629 -0.9310623 0.649573 1.564396 -1.569414 0.533118 -0.2706086 0.3852985 -0.3249176 -0.4515158 -1.22536 -1.209954 0.5009816 0.9450859 0.5496585 0.7172348 0.4777631 -0.04456312 0.5410281 0.708579 0.6235765 1.350311 1.216252 5.739506 -2.282844 2 8
-0.4608081 0.03543083 -0.4013759 -1.003824 -1.125922 -0.9673862 -1.464133 -0.3425858 0.8287971 -0.8726999 0.7016595 -0.7988158 0.7947955 1.579633 -0.5474306 -0.563288 -0.9713982 -2.164296 -0.77929 0.8439228 0.9389346 -1.837411 0.3684314 -0.4249235 0.2558622 -0.4173592 -0.5448081 -1.794782 -1.084655 0.3233359 1.174066 0.3940827 1.044561 0.2893116 0.4424157 0.3797898 1.206543 0.4726312 1.906713 1.323595 5.668645 -2.406068 2 12
-0.4129622 -0.03070081 -0.6550715 -0.9460705 -1.09195 -1.340172 -1.390378 0.02353644 1.123752 -0.7652142 1.030087 -0.6883284 1.112228 1.473445 -0.5847841 -0.3846823 -1.076035 -1.952981 -0.6779133 1.114608 0.3435144 -1.974513 0.1527718 -0.5082667 0.07219654 -0.4486339 -0.6165424 -2.194648 -0.9899008 0.1217923 1.370494 0.2061999 1.301613 0.07673451 0.7927187 0.1483335 1.585893 0.22932 2.309007 1.290944 5.638441 -2.78897 2 16
-0.3935307 -0.05966186 -0.7393332 -0.7747171 -0.9139802 -1.430954 -1.090338 0.1093351 1.333081 -0.802257 1.266093 -0.7545157 1.296052 1.301884 -0.4838236 -0.2193908 -1.149815 -1.581222 -0.7186598 1.283382 -0.1429136 -1.888084 -0.04374753 -0.4045947 -0.1013514 -0.2865829 -0.5891571 -2.362667 -0.9307595 -0.04877323 1.467959 0.02504476 1.398995 -0.09630289 0.9810442 -0.09450843 1.742249 -0.006175575 2.42142 1.215939 5.62688 -3.361324 2 20
-0.4005164 -0.0420116 -0.6650117 -0.578542 -0.6482303 -1.314771 -0.6948687 -0.01110814 1.225376 -0.9391589 1.18599 -0.9357818 1.162751 1.025517 -0.3052486 -0.1293752 -1.20412 -1.214603 -0.8713337 1.157613 -0.6306233 -1.767198 -0.002351826 -0.3252408 -0.04754611 -0.1456999 -0.4773684 -2.341995 -0.9228069 -0.01789776 1.383656 0.07731578 1.372774 -0.01035449 1.067697 -0.1045903 1.691803 0.03112781 2.326816 1.367777 5.644245 -3.972918 2 24
-0.3476018 0.06745768 -0.5157195 -0.3000885 -0.3995481 -1.0633 -0.3501504 0.02468486 0.8991706 -0.9921427 0.892206 -0.9752716 0.857301 0.6246181 -0.1565809 -0.08964961 -1.181947 -1.113953 -0.9264234 0.823032 -1.267887 -1.890711 0.2589812 -0.5177786 0.2076586 -0.3077538 -0.4093808 -2.296244 -1.013791 0.2270225 1.19125 0.3549232 1.374353 0.2749101 1.093711 0.1314657 1.58123 0.3053673 2.241494 1.669978 5.45737 -4.443088 2 28
-0.09656141 0.2943225 -0.2128549 0.03414025 -0.1110931 -0.5638663 -0.183125 0.4651493 0.7066047 -0.757349 0.7003529 -0.6716077 0.7076121 0.1934797 0.07912044 -0.04651995 -1.043153 -1.395733 -0.6668243 0.6280441 -2.035452 -2.284158 0.4095273 -0.9072454 0.3617141 -0.7169405 -0.5123804 -2.401907 -1.267614 0.4068516 0.9673998 0.5163586 1.436401 0.4276423 0.9891258 0.3003278 1.518644 0.4576667 2.24363 1.772871 4.91471 -4.656334 2 32
0.2493941 0.566273 0.258148 0.1546929 0.2975845 0.1474041 -0.2385754 0.9767987 0.8178246 -0.2766499 0.7895752 -0.1456983 0.8505568 -0.138124 0.5322229 -0.09053445 -0.850701 -1.924686 -0.155616 0.7739877 -2.741807 -2.73002 0.3569815 -1.26022 0.3404047 -1.094693 -0.7040724 -2.620124 -1.672155 0.4150718 0.662765 0.4538779 1.438906 0.3837525 0.743025 0.2871082 1.416182 0.4016891 2.167078 1.635239 4.34788 -4.82155 2 36
0.5343452 0.8076031 0.81106 0.04650811 0.7426472 0.8982005 -0.2934875 1.096962 1.196922 0.2452312 1.156582 0.3654242 1.247918 -0.3068671 1.136155 -0.2552323 -0.7186682 -2.403448 0.36538 1.203223 -3.224875 -3.02427 0.2150498 -1.485932 0.2158013 -1.306633 -0.8108866 -2.805516 -2.142251 0.3025784 0.2015252 0.2664832 1.258084 0.2429333 0.4297552 0.1542762 1.08212 0.253357 1.809734 1.423701 4.14005 -5.071463 2 40
0.8144271 1.029649 1.451988 0.03487535 1.157772 1.5793 -0.04106548 0.8414268 1.770364 0.6296418 1.72515 0.7210318 1.798624 -0.3620484 1.759846 -0.3115178 -0.6477926 -2.661269 0.7118738 1.779411 -3.511536 -3.190552 0.1201512 -1.657992 0.1113202 -1.447698 -0.8644491 -2.925264 -2.655392 0.1600059 -0.5201851 0.1164559 0.8546194 0.1347956 -0.03927369 0.03395113 0.42961 0.1240928 1.136899 1.20633 4.173844 -5.571463 2 44
1.172138 1.27101 2.122348 0.2915032 1.54827 2.114318 0.4628239 0.6202216 2.261602 0.8147001 2.230002 0.9034687 2.232451 -0.3789718 2.310683 -0.06946883 -0.5044293 -2.76001 0.8715363 2.228494 -3.672312 -3.359689 0.1844656 -1.871458 0.1793076 -1.646693 -0.9651558 -2.97367 -3.197835 0.1602391 -1.481726 0.1653701 0.3209088 0.2050082 -0.743442 0.0917346 -0.4085055 0.1410689 0.3389367 1.00969 4.036945 -6.255679 2 48
1.526003 1.435561 2.568647 0.6009762 1.853157 2.376827 0.9181795 0.7086254 2.330936 0.8309715 2.339169 0.9103435 2.264725 -0.3158781 2.704498 0.3463247 -0.2388681 -2.720859 0.8805222 2.257805 -3.648864 -3.439049 0.3419865 -2.120995 0.3498538 -1.888217 -1.002096 -2.896266 -3.628932 0.3109626 -2.332558 0.337714 -0.1703495 0.4055697 -1.454818 0.2790625 -1.165109 0.2855308 -0.3067766 0.8764889 3.640488 -6.351205 2 52
1.75203 1.413966 2.587371 0.7417424 1.994573 2.322279 1.087838 1.049228 1.962306 0.7283382 2.018762 0.7606102 1.905846 -0.09273074 2.879161 0.6461849 -0.03026945 -2.504828 0.7540629 1.863476 -3.34703 -3.242329 0.4743218 -2.298152 0.4754475 -2.047034 -0.7933127 -2.670303 -3.832857 0.4659586 -2.784306 0.4751431 -0.5113223 0.5920045 -1.926504 0.4341142 -1.647347 0.4331225 -0.6764913 0.8182877 3.290179 -5.52157 2 56
1.855834 1.241639 2.351892 0.9150271 1.95584 2.16093 0.9436588 1.37983 1.441426 0.6082488 1.527734 0.6132547 1.420903 0.2052568 2.822597 0.6783833 -0.04399113 -2.15255 0.623373 1.315772 -2.822578 -2.793882 0.5148129 -2.304215 0.5080401 -2.054698 -0.318971 -2.330334 -3.809969 0.5160684 -2.952874 0.5023704 -0.7310128 0.6808355 -2.109696 0.4690012 -1.856209 0.4839282 -0.8541453 0.7775699 3.123039 -4.502393 2 60
1.910036 1.039429 2.194538 1.361954 1.764766 2.101246 0.7442601 1.378403 1.128912 0.5212903 1.193439 0.5504884 1.098967 0.3622784 2.577108 0.5540301 -0.1646106 -1.726455 0.5723004 0.9648197 -2.278289 -2.294401 0.4752482 -2.234416 0.4925816 -2.024907 0.2542018 -1.892734 -3.662721 0.4738321 -3.074554 0.4570155 -0.9451684 0.7010659 -2.120986 0.4278995 -1.984586 0.4632238 -1.054529 0.7360563 2.890639 -3.93137 2 64
1.971076 0.9840563 2.120039 1.867745 1.478087 2.143882 0.6688961 1.126215 1.084459 0.4367594 1.105382 0.5076582 0.9802978 0.282461 2.249838 0.4544484 -0.1577552 -1.333871 0.5327803 0.8852217 -1.856209 -1.988263 0.535365 -2.30496 0.5920269 -2.140007 0.6726477 -1.347663 -3.604623 0.5224022 -3.245482 0.5376291 -1.204687 0.8212053 -2.2003 0.5112459 -2.23311 0.5792546 -1.412611 0.8146572 2.313899 -3.750973 2 68
2.08787 1.117956 2.033868 2.024707 1.168064 2.269509 0.621641 1.036215 1.001962 0.3996363 1.038063 0.4938145 0.862777 0.09022804 1.947387 0.4126144 0.01225003 -1.103433 0.5007894 0.8130531 -1.535611 -1.983868 0.8307197 -2.491589 0.8903698 -2.363609 0.8391613 -0.7520901 -3.768469 0.7973381 -3.441835 0.8530393 -1.436407 1.121956 -2.453536 0.8468894 -2.605266 0.9395642 -1.836717 1.034548 1.501063 -3.815604 2 72
2.117663 1.215438 2.039236 1.721588 0.8808191 2.434741 0.5903298 1.111708 0.7084413 0.4232845 0.8191996 0.5130432 0.6381872 -0.09036996 1.686342 0.3229063 0.1791867 -1.050735 0.4943224 0.5922641 -1.237578 -2.170492 1.310539 -2.5969 1.327537 -2.518082 0.8688994 -0.1793142 -4.092204 1.255587 -3.610781 1.331161 -1.550679 1.539206 -2.772479 1.357316 -2.959348 1.439858 -2.156821 1.279953 0.8367563 -4.049357 2 76
1.880525 1.140891 2.128301 1.212582 0.5870321 2.523817 0.5867676 1.00761 0.3894633 0.3997362 0.5415868 0.4889314 0.3984137 -0.2927015 1.453055 0.08252762 0.2688835 -1.121047 0.4489816 0.3538772 -0.9555749 -2.410659 1.858002 -2.552016 1.82158 -2.533034 0.8496733 0.370227 -4.419669 1.784737 -3.70017 1.863301 -1.513684 1.997955 -3.025547 1.889434 -3.137845 1.95343 -2.281025 1.499497 0.5011187 -4.338774 2 80
1.476034 0.9672297 2.158086 0.7743688 0.2521899 2.510495 0.4484699 0.680828 0.2624462 0.3306389 0.3842632 0.4472223 0.276324 -0.5312908 1.313856 -0.2747279 0.470663 -1.276135 0.4072225 0.2549031 -0.7517092 -2.677749 2.295458 -2.395514 2.216636 -2.420524 0.7472813 0.9057744 -4.59636 2.232968 -3.669553 2.292728 -1.390453 2.371643 -3.145314 2.28983 -3.124396 2.333188 -2.301882 1.572549 0.3986407 -4.516331 2 84
1.085395 0.6871392 2.148659 0.4676421 -0.05765703 2.500083 0.1704742 0.5442645 0.2672623 0.4243112 0.3573382 0.5496616 0.2809878 -0.7099823 1.3704 -0.6027197 1.030292 -1.436596 0.5709743 0.2616751 -0.6533285 -2.962741 2.517354 -2.300065 2.429823 -2.331807 0.4854791 1.38647 -4.612679 2.522696 -3.599114 2.537174 -1.348353 2.575739 -3.173757 2.492913 -3.133773 2.50157 -2.463917 1.365306 0.2488119 -4.39355 2 88
0.9057965 0.3705164 2.210657 0.3404146 -0.2123447 2.608073 0.01788352 0.867375 0.251371 0.7691484 0.3393827 0.8328119 0.3030629 -0.7824286 1.622217 -0.7885412 1.858744 -1.510365 0.9605171 0.2624297 -0.645627 -3.201608 2.618831 -2.475807 2.551694 -2.476266 0.05757982 1.711538 -4.660565 2.712368 -3.635824 2.661647 -1.490107 2.656147 -3.313061 2.575222 -3.373413 2.556269 -2.856986 0.9448593 -0.2522132 -3.892486 2 92
1.051629 0.2024119 2.39215 0.4454674 -0.1743418 2.767458 0.1012548 1.288223 0.2312821 1.087946 0.2879466 1.059546 0.289613 -0.8334734 1.903575 -0.8821886 2.522723 -1.505089 1.26182 0.243811 -0.7247837 -3.337946 2.727901 -2.780005 2.667092 -2.71624 -0.4067354 1.817784 -4.852232 2.876367 -3.716701 2.753186 -1.697677 2.719437 -3.672677 2.661667 -3.767104 2.630668 -3.282263 0.5094897 -1.00009 -3.15092 2 96
1.251888 0.1435684 2.562593 0.5163236 -0.06671696 2.803566 0.1454912 1.356505 0.2478115 1.109666 0.2440567 1.035421 0.2755361 -0.915135 2.053299 -1.024403 2.776402 -1.436161 1.227937 0.2246821 -0.8787369 -3.380688 2.870135 -2.86954 2.804194 -2.735689 -0.7476568 1.817923 -5.013445 3.034512 -3.582867 2.862822 -1.740757 2.849903 -3.984677 2.79747 -4.001348 2.753049 -3.453336 0.2683927 -1.482312 -2.720344 2 100
1.150012 0.08089652 2.490217 0.2794047 -0.02450292 2.706945 -0.1247615 1.091035 0.2177184 0.9438145 0.1868059 0.8988937 0.2392701 -0.968419 2.079359 -1.199774 2.807055 -1.30765 1.013315 0.1476228 -1.083242 -3.441512 2.948102 -2.683324 2.885764 -2.530139 -0.9623689 1.870049 -4.97164 3.127208 -3.110602 2.936141 -1.520317 2.967115 -3.980616 2.885963 -3.862016 2.826144 -3.237907 0.2644378 -1.401098 -2.63414 2 104
0.8286123 -0.05065072 2.27028 -0.0898113 -0.115188 2.533028 -0.6493502 0.8273151 0.06478925 0.8677869 0.04188628 0.8817678 0.114173 -1.00542 2.012706 -1.299399 2.848973 -1.237793 0.9224811 -0.03908396 -1.370444 -3.653884 2.948981 -2.409175 2.901386 -2.299672 -1.224269 1.957124 -4.799097 3.157789 -2.470679 2.973251 -1.180712 3.012511 -3.764171 2.915856 -3.513422 2.863309 -2.867856 0.3897708 -0.9993283 -2.294474 2 108
0.592986 -0.3059304 2.100852 -0.3103426 -0.3590624 2.308396 -1.250771 0.7377765 -0.1785578 0.954354 -0.184532 0.977701 -0.1059584 -1.094221 1.84676 -1.345412 2.892003 -1.310862 0.9988611 -0.3041015 -1.767707 -3.963141 3.043813 -2.196399 3.015312 -2.147836 -1.614857 1.954733 -4.599747 3.251095 -1.974589 3.129121 -0.9171536 3.131189 -3.48872 3.051027 -3.21121 3.019037 -2.640741 0.6018462 -0.5591495 -1.776097 2 112
0.4714097 -0.5208936 1.899647 -0.3304866 -0.6515456 2.137619 -1.75238 0.5926114 -0.4711882 0.9756971 -0.4561412 0.9730402 -0.398722 -1.206273 1.669486 -1.398532 2.785572 -1.414385 0.9940115 -0.6073543 -2.183895 -4.17222 3.205339 -1.979231 3.171656 -1.974499 -1.953852 1.795234 -4.335881 3.360984 -1.712109 3.3446 -0.6930329 3.327162 -3.096931 3.250096 -2.86271 3.211085 -2.379633 0.9052145 -0.1239459 -1.394616 2 116
0.3608416 -0.5177336 1.679083 -0.2447849 -0.7968786 2.074836 -1.908053 0.2576586 -0.7446423 0.7157291 -0.6947638 0.7264581 -0.6744179 -1.319235 1.59997 -1.428442 2.45478 -1.375303 0.714501 -0.8682991 -2.554002 -4.200018 3.224646 -1.659577 3.186063 -1.657656 -2.054528 1.500762 -3.98771 3.316536 -1.50265 3.400719 -0.4314671 3.408205 -2.559413 3.297448 -2.38018 3.232807 -1.941892 1.236907 0.1537876 -1.04039 2 120
0.3437629 -0.2943089 1.57269 -0.1786008 -0.731768 2.048139 -1.625829 -0.03626325 -0.8464768 0.3102808 -0.7276977 0.3761386 -0.7776809 -1.525215 1.57785 -1.364264 1.982723 -1.153379 0.319684 -0.9441493 -2.981207 -4.16537 3.062074 -1.328571 3.059238 -1.292372 -2.024666 1.146322 -3.628117 3.122209 -1.214963 3.255114 -0.1889853 3.280781 -1.997268 3.157434 -1.929286 3.087866 -1.564669 1.503968 0.07793756 -0.7634024 2 124
0.5191389 0.06880591 1.580555 -0.1535238 -0.6017271 1.977807 -1.147158 -0.1063246 -0.7437769 0.005309929 -0.5439348 0.1114039 -0.6875929 -1.909711 1.417552 -1.196242 1.500107 -0.8996783 0.04921228 -0.8202285 -3.588505 -4.266677 2.820008 -1.040613 2.84145 -0.9665244 -2.15736 0.7880154 -3.28866 2.89288 -0.8273321 2.985481 0.1217086 3.018316 -1.466871 2.929456 -1.44862 2.887016 -1.174496 1.7073 -0.3145653 -0.871623 2 128
0.7610158 0.2919977 1.673858 -0.1159428 -0.5486599 1.859893 -0.9030035 0.02104746 -0.6560606 -0.1610386 -0.4221334 -0.07112446 -0.6072762 -2.410205 1.135858 -1.063105 1.103331 -0.8188677 -0.09338797 -0.7210299 -4.340681 -4.569849 2.685018 -0.788217 2.679726 -0.6754602 -2.557627 0.4501775 -2.982617 2.763183 -0.4009807 2.799467 0.6268106 2.847475 -0.9487032 2.77949 -0.7328136 2.781281 -0.5169451 1.923791 -0.7842808 -1.293942 2 132
