Fp1 Fp2 AF3 AF4 Fz F3 F4 F7 F8 FC5 FC6 FT7 FT8 Cz FC1 FC2 C3 C4 T7 T8 A1 A2 CP1 CP2 CP5 CP6 TP7 TP8 Pz P3 P4 P7 P8 PO9 PO10 PO3 PO4 PO7 PO8 O1 O2 Oz ID time
0.9274904 1.535498 0.828629 1.304285 1.206215 0.3781441 3.154287 -0.3976072 1.433185 -1.501424 1.779567 -1.26784 1.816712 -1.076047 0.4150946 0.6182309 -1.116704 2.542917 -3.105599 1.332125 -1.674584 -0.0007683797 -2.298931 1.971925 -2.860742 1.268803 -0.8278837 -2.880953 0.1023355 -3.451107 1.3271 -3.671234 -0.9631039 -3.208112 -1.061926 -3.43959 -1.002045 -3.020137 -1.198211 -2.000423 0.8409739 17.24149 1 -168
0.4198964 1.642583 0.6044953 1.437091 1.110615 0.500116 2.837925 -0.2314877 1.5683 -1.561218 1.670237 -0.7529221 1.676126 -1.195063 0.1718495 0.5539429 -1.255228 2.396439 -2.845492 1.060177 -1.681302 -0.1630413 -2.152078 1.867987 -2.649291 1.117769 -0.8485979 -2.67137 -0.01912428 -3.304823 1.176368 -3.663281 -0.8631881 -3.113209 -1.01498 -3.43115 -0.9298694 -3.052222 -1.157647 -2.031003 0.7314466 18.04427 1 -164
0.1247322 1.608304 0.5596516 1.399661 1.107649 0.7160768 2.589143 0.2401884 1.45858 -1.41251 1.412938 -0.3826144 1.370311 -1.421004 0.04096114 0.3747614 -1.243332 2.115629 -2.598623 0.5644993 -1.66331 -0.4980267 -1.938012 1.666829 -2.133587 0.7425661 -0.947727 -2.467077 -0.255753 -2.942855 1.027757 -3.69939 -0.9262629 -3.043086 -1.063683 -3.455957 -0.9586164 -3.013115 -1.232384 -2.307843 -0.04393635 20.5285 1 -160
-0.2665938 1.374594 0.3485255 1.174269 0.9593183 0.7656741 2.411946 0.4305854 1.138589 -1.331865 1.194185 -0.5542362 1.147107 -1.709799 -0.1264111 0.1600995 -1.329068 1.845404 -2.625079 0.4634206 -1.67484 -0.7587818 -1.778742 1.518525 -1.614554 0.3656125 -1.01949 -2.30804 -0.3085106 -2.539229 1.027009 -3.677872 -0.8860044 -2.815089 -0.9656511 -3.345599 -0.8695174 -2.881894 -1.183824 -2.390503 -0.8436978 23.48001 1 -156
-0.6252943 1.033558 0.07791781 0.8658493 0.7135913 0.6825173 2.255862 0.3933367 0.764814 -1.231084 1.00614 -0.6714671 0.9952158 -1.883927 -0.3267568 0.02772079 -1.470628 1.698053 -2.463898 0.7849856 -1.608721 -0.7350115 -1.574302 1.498748 -1.269612 0.07197045 -0.9639473 -2.020606 -0.06090311 -2.279362 1.152187 -3.430721 -0.6142964 -2.352324 -0.6526002 -3.11179 -0.6055041 -2.680594 -0.9114048 -2.072659 -1.329519 22.92441 1 -152
-1.002577 0.6706541 0.0320586 0.5407927 0.5360992 0.6329973 2.027937 0.5414184 0.475041 -0.9033411 0.7058906 -0.02582112 0.7214508 -1.894511 -0.5173732 -0.029147 -1.433429 1.631357 -1.650819 0.9874436 -1.380061 -0.5467242 -1.164935 1.46569 -0.9025988 -0.3260262 -0.7753017 -1.512736 0.2850653 -2.019912 1.177314 -2.894885 -0.2803716 -1.769962 -0.3360194 -2.790546 -0.3065812 -2.381839 -0.5670564 -1.563261 -1.687732 18.23238 1 -148
-1.55431 0.3239714 0.07049826 0.2207319 0.3839655 0.5687428 1.760695 0.8133202 0.3626994 -0.4345665 0.2908069 0.9349236 0.3035358 -1.915323 -0.7412271 -0.1716129 -1.214949 1.533397 -0.6082417 0.8511622 -1.110085 -0.4753363 -0.6702065 1.329541 -0.3464058 -0.8053336 -0.533254 -0.9660799 0.4633123 -1.625062 1.07108 -2.307252 -0.01091827 -1.265016 -0.1129495 -2.492201 -0.06851504 -1.977337 -0.2917449 -1.157892 -2.062151 13.63565 1 -144
-2.01388 0.002084255 -0.1052175 -0.08699702 0.08466273 0.3610235 1.524022 0.9247785 0.3014006 -0.1038932 -0.01740199 1.062175 -0.0151836 -2.078559 -1.029006 -0.5251668 -1.063823 1.364481 -0.146384 0.7925732 -0.9527121 -0.5784488 -0.3377236 1.25877 0.2832585 -0.9461105 -0.30867 -0.5762373 0.4929231 -1.188028 1.068724 -1.943973 0.1551052 -0.8914064 0.05385887 -2.312467 0.09762911 -1.556355 -0.0878256 -0.9144639 -2.486182 12.43861 1 -140
-2.116438 -0.235695 -0.5378206 -0.3159191 -0.3827247 0.07724898 1.29095 0.7961341 0.1115718 -0.1301061 -0.07551897 0.01608994 -0.07449139 -2.267586 -1.354101 -0.9587684 -1.1612 1.170958 -0.6148219 0.9580926 -0.897846 -0.6685468 -0.3013451 1.317462 0.5508106 -0.4794518 -0.06824324 -0.3619767 0.5904369 -0.9256853 1.266182 -1.890481 0.2499682 -0.5862672 0.2093004 -2.220104 0.2515898 -1.250356 0.1112078 -0.6681541 -2.812668 14.38835 1 -136
-2.093709 -0.4114535 -0.9067258 -0.4949115 -0.8107948 -0.06193321 0.9475037 0.5180889 -0.1490926 -0.4560391 -0.1595961 -1.480041 -0.1352572 -2.268381 -1.607036 -1.234534 -1.428906 0.9441322 -1.661587 0.7804484 -0.8363767 -0.6036245 -0.46878 1.270449 0.3095986 0.0945529 0.2494522 -0.2140177 0.7796078 -0.8716702 1.407233 -2.02065 0.381817 -0.2619237 0.414257 -2.090018 0.4413822 -1.050558 0.3406386 -0.2589699 -2.815423 17.97283 1 -132
-2.282828 -0.6488024 -0.8391746 -0.7524887 -0.9862942 0.01476587 0.4611329 0.4653785 -0.3180839 -0.5926561 -0.6117171 -2.144438 -0.5321732 -2.021227 -1.660072 -1.334392 -1.548705 0.6354223 -2.171506 -0.02683731 -0.6656885 -0.4723203 -0.5182081 1.008828 0.08577759 0.2350311 0.5815322 0.02840647 0.9329342 -0.7249792 1.340535 -1.884196 0.5943307 0.145174 0.6769809 -1.735448 0.6476281 -0.7749163 0.6050137 0.2974463 -2.714696 19.2054 1 -128
-2.55152 -0.8780005 -0.4716458 -0.9943424 -0.9325809 0.1942027 0.001049323 0.9989671 -0.360319 -0.09335223 -1.26222 -1.125031 -1.130592 -1.69432 -1.487448 -1.452433 -1.275221 0.2456759 -1.240491 -0.9276293 -0.383886 -0.4792089 -0.2287313 0.6678955 0.4131784 0.1392319 0.768649 0.3942933 0.9564154 -0.2527993 1.182771 -1.206415 0.7336714 0.5309448 0.8332165 -1.191229 0.7713249 -0.3838568 0.8026232 0.7248229 -2.996916 14.64127 1 -124
-2.534489 -0.9411967 -0.1986049 -1.053598 -0.8401992 0.3566084 -0.291619 1.836635 -0.3165084 0.7264048 -1.576349 0.8856504 -1.436226 -1.460585 -1.169574 -1.700731 -0.8061469 -0.1793765 0.5071803 -1.261329 -0.1553748 -0.6571174 0.222396 0.298694 1.174214 0.006616783 0.7288563 0.6758661 0.7700499 0.3698067 0.8943121 -0.4105265 0.5639062 0.7063669 0.6649063 -0.7437021 0.6348653 -0.07655913 0.723623 0.7564964 -3.588256 7.894673 1 -120
-1.969623 -0.830052 -0.02610691 -0.9454659 -0.8003042 0.4227685 -0.4386611 2.452483 -0.212338 1.314456 -1.303186 2.660453 -1.193418 -1.262601 -0.8247882 -1.934287 -0.4924468 -0.5192026 1.90358 -1.004793 -0.1135094 -0.7619696 0.5046778 -0.1050683 1.734159 -0.2770242 0.5680789 0.685033 0.4883168 0.6910803 0.4577249 0.01295987 0.2162066 0.6485795 0.3275589 -0.6306066 0.3026535 0.01945853 0.4409618 0.5700852 -3.963598 3.187749 1 -116
-1.085285 -0.6199287 0.1293637 -0.7514305 -0.7950197 0.3327501 -0.5272545 2.574127 -0.09151416 1.511104 -0.7723755 3.490876 -0.7132258 -0.9846346 -0.5808008 -1.979637 -0.4136146 -0.6432349 2.49054 -0.623398 -0.184599 -0.5794961 0.5233936 -0.4020295 1.72784 -0.5168377 0.50787 0.5137182 0.4187855 0.5252632 0.1854443 0.0945559 0.08847287 0.5133395 0.1962302 -0.811692 0.1085597 0.01779342 0.2954364 0.5738109 -3.741539 -0.001661127 1 -112
-0.5532979 -0.4744277 0.1218695 -0.6182646 -0.8445845 0.09430096 -0.6529669 2.169192 -0.05058722 1.231953 -0.5085704 2.945064 -0.4984929 -0.6997941 -0.5271392 -1.913498 -0.4966775 -0.5825055 2.117538 -0.3403438 -0.220346 -0.2488705 0.3701755 -0.4661855 1.418434 -0.5752213 0.6335192 0.3863216 0.5929013 0.2211121 0.2253451 0.02661475 0.1837399 0.4484493 0.2526014 -0.9648672 0.1247123 0.141168 0.3631628 0.8572726 -3.028284 -0.6604351 1 -108
-0.5230618 -0.5382463 -0.006932091 -0.6769579 -0.9341673 -0.09974355 -0.8365754 1.642433 -0.1823113 0.6615041 -0.6694388 1.75016 -0.6741766 -0.5369944 -0.5861895 -1.89615 -0.5820795 -0.5134517 1.18788 -0.201692 -0.1342252 -0.0649005 0.1571806 -0.4270187 1.114258 -0.8567154 0.8171947 0.3797137 0.7202896 0.06755996 0.2826384 -0.09102466 0.232289 0.4965738 0.2599199 -0.9027023 0.1710815 0.504728 0.484447 1.20302 -2.489979 2.291907 1 -104
-0.6347772 -0.7374222 -0.01804481 -0.8584942 -0.9546947 -0.05135088 -0.9855709 1.429196 -0.393167 0.3111281 -0.9901871 1.188912 -0.9654102 -0.4871256 -0.566604 -1.919168 -0.5105169 -0.550166 0.4967976 -0.3923475 0.01666358 -0.1020674 -0.04515823 -0.4925287 0.7800987 -1.410364 0.9055792 0.389161 0.6416335 -0.06306607 0.1358625 -0.197607 0.2143233 0.615066 0.2187951 -0.7726926 0.2107335 0.9763514 0.5994633 1.441779 -2.471218 5.998149 1 -100
-0.6160955 -0.8801274 0.1259561 -0.9926875 -0.8584625 0.139983 -1.022083 1.367499 -0.4903234 0.2731625 -1.000807 1.0753 -0.947335 -0.4839507 -0.4209096 -1.889602 -0.3889199 -0.6304678 0.1641203 -0.5995409 0.04997617 -0.2287227 -0.2256133 -0.602301 0.4154706 -1.633335 0.8145233 0.3038013 0.4544592 -0.2415928 -0.0802439 -0.2419017 0.2163469 0.7154587 0.2016253 -0.6740158 0.2546953 1.281466 0.675229 1.542986 -2.495048 7.571979 1 -96
-0.2624712 -0.8526558 0.3665223 -0.9727423 -0.7048476 0.3111577 -1.009747 1.245098 -0.4654398 0.3259763 -0.5294542 0.7814128 -0.5014358 -0.5017024 -0.2705019 -1.754168 -0.3545397 -0.6265828 0.03186978 -0.3653172 -0.07433043 -0.3134573 -0.3105981 -0.6018927 0.2205012 -1.461541 0.558176 0.1710886 0.2967225 -0.3148273 -0.2654549 -0.1414788 0.1947317 0.7568033 0.1612375 -0.5165638 0.2273773 1.312768 0.6474304 1.564615 -2.278381 6.276663 1 -92
0.3000225 -0.6455967 0.6961859 -0.7737541 -0.5346236 0.4850582 -1.01113 1.308166 -0.4212604 0.4712404 -0.1385119 0.5308956 -0.1726164 -0.487378 -0.1824202 -1.501064 -0.2616362 -0.5135755 0.1307608 -0.1963189 -0.154023 -0.2960546 -0.2373197 -0.5550084 0.1852651 -1.338096 0.3024717 0.1311506 0.214628 -0.2321514 -0.4552098 0.1147502 0.122563 0.7602136 0.0949414 -0.2572773 0.136166 1.260817 0.5612839 1.59384 -2.180184 3.144723 1 -88
0.5418587 -0.3807079 0.9023321 -0.5000682 -0.404457 0.6263033 -0.9918369 1.537875 -0.3294243 0.7155381 -0.2407966 0.5526537 -0.3360205 -0.4145362 -0.1317686 -1.244329 0.02182424 -0.3910055 0.3529786 -0.5437362 -0.07274595 -0.2389678 -0.07459477 -0.5596346 0.1819769 -1.329905 0.1681083 0.2041538 0.1588919 -0.05085582 -0.5905157 0.4027244 0.06875327 0.7253969 0.05708561 0.03083086 0.0728468 1.316799 0.4703731 1.545291 -2.217511 0.3887863 1 -84
0.2235339 -0.2873139 0.7189094 -0.3774135 -0.4225195 0.6007021 -0.989432 1.499792 -0.1766597 0.8760107 -0.5095026 0.6160415 -0.647167 -0.3717109 -0.1337787 -1.157327 0.3366095 -0.360956 0.4892243 -0.9269419 0.04050415 -0.2643349 0.1010993 -0.5851018 0.2855005 -1.28875 0.06143518 0.2893353 0.05627792 0.2420634 -0.602302 0.6131078 0.0989199 0.6799963 0.07293428 0.3288549 0.1025864 1.415722 0.3659892 1.292005 -2.013346 -0.2926159 1 -80
-0.234767 -0.4007914 0.3464184 -0.4654548 -0.5553615 0.3886616 -1.03969 1.142762 -0.107952 0.7401518 -0.6112655 0.3248807 -0.7510531 -0.3862189 -0.2061882 -1.170722 0.4408102 -0.4092711 0.3481443 -0.9641817 0.07588687 -0.3389891 0.2014274 -0.5400633 0.4233012 -0.9792896 -0.08039405 0.3298449 -0.06824619 0.5905817 -0.4688699 0.7627569 0.1858383 0.6977108 0.1689365 0.715193 0.2254767 1.411979 0.3091947 1.034559 -1.623198 0.5373736 1 -76
-0.3008013 -0.495415 0.2336382 -0.5613359 -0.6663482 0.08364971 -1.057992 0.7447067 -0.06191567 0.2774232 -0.4145904 -0.241404 -0.5126721 -0.388231 -0.3083754 -1.076087 0.2893158 -0.4406076 -0.04097974 -0.6663891 0.03646177 -0.357081 0.123216 -0.3904672 0.3317283 -0.4265436 -0.21428 0.3047155 -0.155929 0.7193254 -0.300875 0.8211985 0.1918376 0.7201623 0.2462137 1.059884 0.2921007 1.258085 0.2885131 1.027955 -1.202288 1.230494 1 -72
-0.009085774 -0.4116088 0.4580476 -0.4958445 -0.6973881 -0.1802663 -0.9701055 0.4423199 0.1953796 -0.2344824 0.1216526 -0.4738828 0.08753846 -0.3774385 -0.391272 -0.8663815 0.04245704 -0.3920882 -0.2959714 -0.05810398 -0.06449749 -0.3459856 -0.08298016 -0.2211806 0.06796908 -0.01623045 -0.3516684 0.1777308 -0.2444235 0.5369478 -0.2890766 0.7613996 0.02836584 0.5868838 0.1318211 1.137977 0.1573346 1.02372 0.1746595 1.116875 -0.6582705 0.8790817 1 -68
0.176567 -0.2418796 0.7359594 -0.3432025 -0.6218662 -0.3037613 -0.7542928 0.2050801 0.5491486 -0.4817754 0.7415503 -0.2298447 0.764118 -0.4010906 -0.4093276 -0.66555 -0.1068587 -0.2732511 -0.1575132 0.6471038 -0.1604259 -0.4022813 -0.2231128 -0.09917898 -0.02234883 0.1728601 -0.4999712 -0.006162329 -0.3902122 0.4074535 -0.3882547 0.7607282 -0.1931652 0.3086 -0.1093947 1.077207 -0.07629908 0.8556816 -0.02483837 0.9686546 -0.09744616 -0.6874134 1 -64
0.0710907 -0.1382927 0.7871065 -0.2372487 -0.435906 -0.2508087 -0.4390139 -0.005996317 0.6550909 -0.4282191 0.9954204 0.06136676 1.062522 -0.4400613 -0.3082039 -0.502572 -0.07307699 -0.1329513 0.1546102 1.035473 -0.155908 -0.5195009 -0.1568581 -0.04026614 0.1823864 0.1766424 -0.6367931 -0.1257315 -0.5664114 0.5597345 -0.4695616 0.8469844 -0.3534431 0.0521513 -0.3002475 1.082523 -0.2528192 0.7596638 -0.2213685 0.5358539 0.1747973 -2.002067 1 -60
-0.1031932 -0.01396751 0.5101178 -0.07856872 -0.1896898 -0.07636207 -0.1193232 -0.2540488 0.5133596 -0.3060767 0.7667635 0.03088501 0.8541725 -0.3971844 -0.07799774 -0.2878458 0.06415938 0.005106162 0.2536487 1.018793 -0.06927639 -0.540067 0.02320138 -0.02135636 0.3895838 0.1740061 -0.724771 -0.146898 -0.6445249 0.7157263 -0.4790975 0.7935766 -0.4351253 -0.09383862 -0.4011338 1.050798 -0.3437993 0.5490875 -0.3719322 0.0879592 0.3125658 -1.937408 1 -56
-0.2712674 0.18445 0.08200102 0.1650485 0.06276179 0.07218046 0.08604196 -0.721537 0.3791583 -0.3604053 0.36192 -0.4311985 0.4152217 -0.2210928 0.1721418 0.04234708 0.1570792 0.1388381 -0.04928193 0.7789427 0.01611587 -0.3481376 0.09460007 0.01987705 0.2722451 0.4145883 -0.6790252 -0.1440906 -0.5246139 0.5732742 -0.3299081 0.5056697 -0.3298838 -0.1545759 -0.3476026 0.8287516 -0.2745261 0.1454738 -0.381813 -0.1076761 0.8249926 -1.117095 1 -52
-0.4252547 0.2325719 -0.1728034 0.2405353 0.2799672 0.1297942 0.1527018 -1.272904 0.1912629 -0.5429119 0.01414625 -1.074861 0.02101739 0.03257011 0.3148074 0.3921028 0.19393 0.2486814 -0.5648507 0.2920732 0.08813666 -0.0450194 0.04197001 0.08333299 -0.01350143 0.4761379 -0.4987709 -0.1580507 -0.2888486 0.2643227 -0.07068206 0.131607 -0.01954217 -0.2041183 -0.09818008 0.5257556 -0.02463344 -0.2939499 -0.2162407 -0.1087538 1.460456 0.2859698 1 -48
-0.3960665 0.06657331 -0.2659444 0.0943749 0.3913278 0.08038065 0.1958673 -1.488891 -0.1966478 -0.6328598 -0.1804218 -1.505162 -0.1736712 0.2706365 0.3411181 0.5754431 0.2692317 0.3135057 -0.8018162 -0.28787 0.169151 0.1776242 0.03461103 0.1709172 0.02961819 0.1820007 -0.2919948 -0.1542295 -0.08922516 0.1916569 0.1587702 -0.02681287 0.2562251 -0.2718657 0.1684517 0.4009504 0.2143045 -0.5675807 -0.004496786 -0.1955768 1.564578 1.213865 1 -44
-0.2141623 -0.08917832 -0.4584219 -0.02835556 0.3420233 -0.1168822 0.3004666 -1.298587 -0.5123792 -0.5522163 -0.2054761 -1.494536 -0.1763332 0.3846948 0.2976577 0.5564794 0.3843059 0.3398725 -0.5522379 -0.6169782 0.237488 0.2677802 0.1187267 0.2884326 0.421992 0.1274974 -0.1109111 -0.1272443 0.02554209 0.4108981 0.3621185 0.09742559 0.328465 -0.2835673 0.2681258 0.4715112 0.281363 -0.6474721 0.1067879 -0.4972023 1.206837 0.3556435 1 -40
-0.02897156 -0.07903818 -0.7453424 0.02342136 0.1644623 -0.3712849 0.4384207 -0.9051821 -0.4981706 -0.3696697 -0.1625387 -0.9964688 -0.1403799 0.3279099 0.2150292 0.5196014 0.4349774 0.3713291 -0.1122458 -0.6107765 0.2567072 0.3372046 0.2189908 0.405621 0.608295 0.4092112 0.05537694 -0.1029065 0.1118467 0.5163899 0.5440599 0.1817932 0.2382769 -0.2103834 0.2161707 0.483406 0.2040637 -0.702845 0.065704 -0.8622683 0.7601244 -1.210041 1 -36
0.03487569 0.07157898 -0.8977712 0.1998095 -0.01153257 -0.4925154 0.5746203 -0.5757595 -0.3243015 -0.1639806 -0.04896074 -0.2448175 -0.06722656 0.2317534 0.1583043 0.6348726 0.3736652 0.4374127 0.239327 -0.3204118 0.2506152 0.4683971 0.2851802 0.5361634 0.2941692 0.7035156 0.1932972 -0.0614229 0.2238098 0.3051665 0.6563705 0.07959383 0.141819 -0.1401925 0.1723024 0.3053486 0.1365914 -0.8677407 -0.0282672 -1.042375 0.4849219 -2.906196 1 -32
-0.2146032 0.2653326 -0.7757654 0.3803771 -0.01157149 -0.4123479 0.70209 -0.5106153 -0.1891817 -0.02152683 0.134936 0.2506817 0.08771909 0.2759013 0.1961527 0.8757188 0.2780089 0.5103657 0.3571255 0.05486425 0.2536923 0.5896375 0.2832498 0.6351421 -0.269711 0.9630429 0.2736161 -0.00387489 0.324853 -0.02974458 0.7148556 -0.1065983 0.1577665 -0.178645 0.229838 -0.01311427 0.1644555 -1.092806 -0.06060355 -1.053417 0.6232365 -4.638469 1 -28
-0.783979 0.4052531 -0.5861576 0.4929162 0.1568388 -0.3147087 0.8082832 -0.7036337 -0.008228421 -0.04277152 0.2201037 0.1583039 0.1795248 0.4439301 0.2608768 1.113314 0.2144227 0.5282503 0.1269245 0.3182248 0.2303422 0.5869798 0.2195119 0.6347455 -0.6763259 1.155061 0.3125767 0.01116746 0.3485903 -0.3055278 0.7350944 -0.3853168 0.227748 -0.3639542 0.2873234 -0.4122141 0.2051212 -1.265178 -0.07094788 -1.168907 1.201808 -4.495331 1 -24
-1.22264 0.4994461 -0.5866897 0.5871515 0.3650055 -0.375727 0.9350616 -1.013367 0.330543 -0.1871063 0.2435967 -0.2662585 0.2282719 0.5700328 0.2357099 1.30413 0.1070842 0.4730085 -0.2789197 0.5473093 0.1222814 0.4649638 0.110555 0.6048931 -0.805846 1.360723 0.3079953 -0.07500071 0.2845931 -0.523473 0.7322099 -0.7426094 0.2329343 -0.6315532 0.2287718 -0.8236899 0.155443 -1.38925 -0.137393 -1.487829 1.953444 -2.437824 1 -20
-0.915242 0.6371977 -0.6149676 0.7458773 0.6488383 -0.4253731 1.136137 -1.111327 0.6338548 -0.2470914 0.3412544 -0.3987282 0.3608354 0.6006148 0.1705072 1.520989 -0.1346064 0.4060046 -0.4743661 0.6833101 -0.06737633 0.3565467 -0.03023472 0.5671861 -0.8484322 1.545928 0.2219589 -0.2391565 0.1657399 -0.7494417 0.6667893 -1.048603 0.1174096 -0.8631319 0.05765451 -1.17451 -0.01995752 -1.540259 -0.2690352 -1.79772 2.338704 -0.9537153 1 -16
0.3640771 0.8707518 -0.4366782 1.001917 1.092963 -0.2066389 1.401738 -0.7115599 0.5636889 -0.04803574 0.3699431 0.1547131 0.4316322 0.6487647 0.202249 1.835693 -0.414749 0.3686221 -0.200296 0.5297231 -0.2380777 0.3656492 -0.1003397 0.4295438 -0.8715743 1.273225 0.09752323 -0.342321 0.03593535 -0.9875286 0.3849873 -1.221623 -0.1762554 -0.9933002 -0.2204321 -1.4518 -0.3284547 -1.687366 -0.4969991 -1.873673 1.938202 -1.353829 1 -12
2.051952 1.146942 -0.1823862 1.30015 1.605934 0.200931 1.710079 -0.1564148 0.2057078 0.281679 0.3431706 0.8814877 0.4340472 0.7518971 0.3429385 2.1968 -0.6106803 0.3295207 0.246007 0.34185 -0.3451913 0.4011888 -0.1162756 0.2348823 -0.8301578 0.6163498 -0.03368294 -0.3269012 -0.107055 -1.203588 -0.03833931 -1.316765 -0.612423 -1.072778 -0.6007642 -1.664462 -0.7246125 -1.771665 -0.8439226 -1.794775 1.228225 -2.498887 1 -8
2.8694 1.273897 -0.2222218 1.453592 1.959148 0.4592252 1.948709 -0.1926704 -0.04214321 0.3468188 0.3780555 0.7496283 0.4647009 0.8190155 0.499853 2.467323 -0.7522972 0.2504051 0.1369399 0.3012479 -0.4421699 0.3246945 -0.2532537 0.09824221 -0.7522039 0.1332656 -0.1503763 -0.2981602 -0.2640335 -1.331743 -0.262727 -1.444 -0.9024858 -1.156538 -0.9044737 -1.738651 -0.9955574 -1.741502 -1.13677 -1.7622 1.163998 -1.351843 1 -4
2.267224 1.25604 -0.5647546 1.465135 2.119047 0.4347031 2.045485 -0.7890203 -0.1244776 0.106334 0.3123482 -0.1446527 0.3742125 0.872735 0.6553914 2.638288 -0.8263355 0.1774647 -0.4622347 0.0716214 -0.4962209 0.2068867 -0.4494345 -0.01941834 -0.5622301 -0.1750488 -0.1880648 -0.3219589 -0.3692476 -1.285512 -0.2513367 -1.543429 -0.9161306 -1.246317 -1.000057 -1.642709 -1.040471 -1.548079 -1.229064 -1.763483 1.691575 2.265289 1 0
1.260039 1.331381 -0.7014553 1.551249 2.341673 0.360193 2.18 -1.251845 -0.1875376 -0.1234176 0.1977235 -0.8563287 0.2427701 1.018141 0.8729067 2.86114 -0.8051184 0.222455 -0.8279976 -0.2784011 -0.4971363 0.1931015 -0.5402708 -0.1383372 -0.2595803 -0.5060377 -0.2138325 -0.4105452 -0.3917189 -1.146116 -0.2734045 -1.512081 -0.9372179 -1.378321 -1.070196 -1.501405 -1.104065 -1.375345 -1.277684 -1.728145 2.120964 4.539836 1 4
0.8688627 1.55865 -0.4484462 1.759149 2.750675 0.4096723 2.543426 -1.58088 -0.1635781 -0.4001354 0.3279929 -1.353938 0.3738342 1.244163 1.122275 3.256154 -0.8479172 0.4310531 -1.043681 -0.1880593 -0.5683631 0.3012158 -0.6767071 -0.09058644 -0.2441528 -0.4438107 -0.3036574 -0.639825 -0.3395964 -1.212035 -0.2988498 -1.51771 -1.099246 -1.607679 -1.239097 -1.502356 -1.286528 -1.504913 -1.417681 -1.685252 2.652365 4.105116 1 8
0.9556642 1.886999 -0.1967107 2.059417 3.212198 0.5119238 3.102332 -2.20593 0.04879377 -0.8994849 0.6126223 -2.073314 0.6797428 1.45812 1.291885 3.773655 -1.052724 0.7298372 -1.58158 0.402632 -0.7487214 0.4525287 -1.030295 0.1904527 -0.7892638 0.4296544 -0.3902718 -1.026872 -0.2502045 -1.587531 -0.06586099 -1.731979 -1.191095 -1.963904 -1.352535 -1.741062 -1.376104 -1.90439 -1.544339 -1.696319 3.752263 2.849807 1 12
1.11677 2.327431 -0.1137046 2.483283 3.630285 0.6962827 3.713323 -2.8013 0.3548932 -1.265372 0.7743815 -2.615452 0.8858156 1.589158 1.398903 4.218971 -1.229488 0.9937512 -2.164606 0.969894 -0.9475269 0.4987642 -1.43303 0.4618986 -1.505909 1.477946 -0.4564865 -1.46519 -0.2762035 -2.047006 0.2369163 -2.105098 -1.254285 -2.459604 -1.436265 -2.176215 -1.427307 -2.337636 -1.673117 -1.911737 4.797103 2.476732 1 16
1.46627 2.835095 0.07224818 2.980973 4.011372 1.122416 4.279073 -2.743604 0.5680387 -1.159888 0.8889651 -2.466958 1.057338 1.597792 1.546978 4.448776 -1.206445 1.159987 -2.397125 1.167056 -1.129275 0.36862 -1.706834 0.5005744 -1.970657 1.71825 -0.5588239 -1.881239 -0.5068048 -2.481607 0.1494901 -2.618075 -1.606127 -3.029308 -1.75666 -2.755911 -1.749669 -2.709415 -1.999013 -2.407982 4.880759 4.021311 1 20
2.02218 3.250244 0.4714995 3.382844 4.307002 1.685389 4.680355 -2.192094 0.6193829 -0.8606336 1.105357 -2.009759 1.298527 1.495677 1.719664 4.535156 -1.070494 1.252593 -2.470955 1.128892 -1.30963 0.2145931 -1.875504 0.4174336 -2.260485 1.19973 -0.6803954 -2.230316 -0.7725206 -2.895865 -0.2541682 -3.17799 -2.159914 -3.482667 -2.24363 -3.288024 -2.250589 -3.03836 -2.453798 -2.924277 4.214424 6.901132 1 24
2.491982 3.50155 0.9358124 3.62587 4.510983 2.10395 4.867702 -1.52794 0.5362806 -0.5851575 1.246437 -1.50746 1.387806 1.436291 1.925621 4.697898 -0.84931 1.349577 -2.296004 1.005355 -1.408966 0.2117339 -1.823191 0.3505813 -2.303903 0.3117613 -0.7459068 -2.396638 -0.9068718 -3.084289 -0.712017 -3.432295 -2.644526 -3.685908 -2.662697 -3.441197 -2.676914 -3.309599 -2.847282 -3.175413 3.428811 8.097454 1 28
2.749935 3.725546 1.311214 3.857806 4.736742 2.301479 5.030521 -0.7707508 0.4244228 -0.1464696 1.0884 -0.6846332 1.127614 1.552769 2.258749 5.019657 -0.42595 1.518411 -1.436684 0.7211479 -1.364146 0.3175843 -1.396785 0.2360928 -1.795963 -0.6312065 -0.7322481 -2.339596 -0.9707617 -2.877717 -1.186549 -3.188851 -3.035084 -3.738821 -3.004951 -3.228916 -3.031146 -3.512966 -3.166605 -3.242126 2.737664 5.193211 1 32
2.801092 3.963812 1.368865 4.112514 4.955567 2.305368 5.291497 -0.168176 0.4599172 0.3878475 0.7200696 0.2134329 0.6655558 1.708424 2.634765 5.2998 0.07824028 1.696777 -0.2977475 0.2584649 -1.298012 0.337328 -0.855047 0.06888147 -1.035494 -0.8677766 -0.7118058 -2.2162 -1.082851 -2.505499 -1.413859 -2.773175 -3.188223 -3.833163 -3.159783 -3.052217 -3.186085 -3.670282 -3.320517 -3.399999 2.383739 0.324004 1 36
2.750094 4.018862 1.099414 4.17569 5.03919 2.187717 5.504143 0.0154666 0.5962671 0.6680846 0.4243594 0.7503892 0.3225311 1.736176 2.862072 5.343721 0.3775519 1.777584 0.2761749 -0.3207925 -1.314945 0.1988235 -0.5835683 -0.1233177 -0.6349921 -0.4711818 -0.7585104 -2.159828 -1.275135 -2.310922 -1.281438 -2.65953 -3.018625 -3.989699 -3.049436 -3.153917 -3.059128 -3.78484 -3.259415 -3.756234 2.413714 -1.572506 1 40
2.868965 3.818209 0.885219 3.966211 4.995453 2.098816 5.532916 -0.01774961 0.6853408 0.5770812 0.4256397 1.060611 0.3481882 1.665051 2.87815 5.213428 0.3636589 1.761555 0.1658726 -0.7825714 -1.36942 0.02632393 -0.6492196 -0.3499441 -0.7408348 -0.3755354 -0.8455961 -2.165171 -1.507816 -2.352461 -1.17604 -2.952931 -2.860771 -4.094042 -2.961533 -3.418315 -2.964615 -3.916395 -3.229718 -4.189354 2.524215 1.059102 1 44
3.185802 3.536228 0.8790361 3.671376 4.879482 2.042889 5.391418 -0.06678972 0.7350428 0.2598187 0.7541784 1.240458 0.7360262 1.555957 2.74715 5.047158 0.1348192 1.665663 -0.2694607 -0.7260949 -1.434315 -0.07862417 -0.8647713 -0.5221388 -1.0478 -0.8147618 -0.8749657 -2.182072 -1.714493 -2.45769 -1.384077 -3.421025 -3.028076 -4.080758 -3.162025 -3.609955 -3.161845 -4.12653 -3.450076 -4.519754 2.572454 5.963226 1 48
3.353582 3.298348 0.9435205 3.422597 4.764647 1.978652 5.175906 -0.1058148 0.7242828 -0.1042715 1.145195 1.020163 1.13907 1.450399 2.563728 4.874141 -0.1345988 1.487346 -0.7724951 -0.1746725 -1.510801 -0.1456851 -1.028329 -0.5998324 -1.111588 -1.411887 -0.7966042 -2.133116 -1.848907 -2.399431 -1.832737 -3.759051 -3.452213 -3.96107 -3.546262 -3.552182 -3.544436 -4.279119 -3.837355 -4.68271 2.493334 10.89028 1 52
3.250976 3.183056 1.069405 3.279842 4.755166 1.993179 5.082855 0.07252233 0.7227867 -0.3322701 1.298957 0.6691542 1.265737 1.378715 2.403649 4.700819 -0.3298456 1.310259 -1.07972 0.4123214 -1.577153 -0.2595536 -1.131605 -0.6656271 -0.8888001 -1.681291 -0.7105091 -2.048829 -1.928842 -2.173435 -2.259894 -3.859406 -3.887988 -3.880769 -3.874417 -3.356898 -3.895188 -4.291987 -4.193453 -4.860829 2.198597 14.12046 1 56
3.085028 3.234251 1.207772 3.299096 4.842234 2.142921 5.244034 0.6454764 0.830286 -0.2818842 1.226936 0.8730617 1.186586 1.299331 2.339174 4.584923 -0.4288052 1.220649 -0.9768047 0.6792384 -1.647059 -0.428127 -1.23717 -0.7861286 -0.6890015 -1.621966 -0.7241064 -2.038546 -2.00247 -1.929462 -2.504094 -3.818046 -4.180883 -3.945834 -4.065735 -3.221381 -4.144489 -4.290724 -4.445416 -5.218593 1.662789 15.02301 1 60
2.868505 3.29986 1.238885 3.353012 4.90053 2.351193 5.514702 1.323164 0.9285343 -0.03887168 1.094824 1.545291 1.061497 1.184359 2.376017 4.55579 -0.4974886 1.200904 -0.5048088 0.5198965 -1.752105 -0.541233 -1.27492 -0.9745834 -0.4346974 -1.632052 -0.773922 -2.061846 -2.046029 -1.580719 -2.603362 -3.569246 -4.314589 -3.991487 -4.144616 -2.935689 -4.307504 -4.288471 -4.612809 -5.547168 1.018152 14.09313 1 64
2.270628 3.184811 1.111269 3.229899 4.772249 2.391862 5.60325 1.436955 1.096464 0.02271591 1.053239 1.784776 1.024458 1.049471 2.36277 4.516124 -0.695057 1.202395 -0.1520034 0.2522421 -1.918423 -0.5339733 -1.271864 -1.12998 0.01327003 -1.470635 -0.7832676 -2.077325 -2.014949 -1.144441 -2.534073 -3.157789 -4.282872 -3.905309 -4.107536 -2.3718 -4.315639 -4.248596 -4.673672 -5.583923 0.9293123 13.06509 1 68
1.197991 2.902203 0.7128783 2.935383 4.371046 2.101572 5.382337 0.7854849 1.430906 -0.3781044 1.137733 1.039398 1.114142 0.8794672 2.163459 4.304191 -1.084504 1.164729 -0.4698308 0.3538561 -2.141881 -0.496019 -1.364795 -1.126583 0.4373268 -0.9475677 -0.7475556 -2.104498 -1.967978 -0.8407782 -2.258862 -2.907027 -4.073742 -3.804848 -3.937325 -1.809743 -4.12378 -4.186577 -4.581859 -5.383831 1.648233 14.67538 1 72
0.3212445 2.663249 0.09255834 2.699332 3.845834 1.682772 5.055458 0.1917652 1.645774 -0.9241621 1.155941 0.1272913 1.120059 0.6612635 1.891872 3.879615 -1.457237 1.040099 -0.991148 0.7172533 -2.336581 -0.5477788 -1.472337 -1.017803 0.799949 -0.4937362 -0.6503038 -2.075114 -1.97368 -0.5873992 -1.906063 -2.76912 -3.86295 -3.740656 -3.751879 -1.382835 -3.909606 -3.996533 -4.416636 -5.151355 2.121883 17.70176 1 76
0.1984652 2.560972 -0.4392587 2.619623 3.437156 1.453431 4.818382 0.3277581 1.66328 -1.068172 0.9495487 0.2550184 0.8964782 0.3958045 1.717259 3.358268 -1.620122 0.8561901 -0.7765865 0.9264318 -2.452973 -0.6992548 -1.405786 -0.9194546 1.229038 -0.1646227 -0.5294055 -1.971409 -1.996498 -0.2074635 -1.600801 -2.43122 -3.806816 -3.609608 -3.691895 -1.016491 -3.823779 -3.634573 -4.289183 -5.011545 1.675124 17.8287 1 80
0.3890583 2.420906 -0.8022221 2.518074 3.146857 1.395263 4.557376 0.8023819 1.668992 -0.7857428 0.6869341 1.350143 0.6534536 0.05114812 1.571752 2.891472 -1.753941 0.6554942 0.1674941 0.8883154 -2.62132 -0.8789082 -1.160453 -0.8765306 1.753506 0.1493824 -0.4687344 -1.850854 -1.986116 0.2795725 -1.343649 -1.863572 -3.714013 -3.334702 -3.624658 -0.6182202 -3.710673 -3.244966 -4.125625 -4.893626 0.8696264 14.79129 1 84
0.1999447 2.109008 -1.153356 2.248829 2.831562 1.302376 4.184798 0.9562497 1.664343 -0.4982502 0.6370441 2.205183 0.6355944 -0.3890224 1.288637 2.582478 -2.149273 0.4864206 0.9595308 0.8342534 -2.972606 -1.028407 -0.9352862 -0.8555264 2.247091 0.2735019 -0.4758235 -1.75364 -1.908094 0.7604873 -1.063944 -1.260994 -3.368375 -2.983496 -3.354528 -0.1151141 -3.384391 -2.898152 -3.793195 -4.570379 0.3305004 12.17406 1 88
-0.499567 1.709396 -1.542027 1.882886 2.455797 1.090831 3.816284 0.6878672 1.672836 -0.4515214 0.667917 2.036674 0.6733376 -0.8420646 0.8626875 2.427937 -2.720542 0.4032846 1.020324 0.9122706 -3.381433 -1.132681 -0.90296 -0.7656294 2.492808 0.3632247 -0.4848262 -1.685437 -1.732978 1.159761 -0.6833284 -0.7374913 -2.817785 -2.668298 -2.904297 0.4596816 -2.870766 -2.484571 -3.290071 -3.993276 0.2323481 11.56346 1 92
-1.490095 1.333083 -1.944257 1.532443 2.058457 0.7542874 3.537244 0.3721707 1.794771 -0.5006098 0.5707166 1.425195 0.5706154 -1.186337 0.4423958 2.289145 -3.13916 0.3949278 0.7758518 0.91808 -3.645509 -1.224417 -1.033424 -0.6160139 2.592629 0.6663851 -0.4527179 -1.601121 -1.516157 1.540705 -0.1950325 -0.2245854 -2.213739 -2.40462 -2.402415 1.017747 -2.325839 -1.941775 -2.734657 -3.457986 0.3771238 11.28658 1 96
-2.398013 1.023741 -2.215337 1.236104 1.734878 0.3817128 3.345176 0.3582821 1.988129 -0.458244 0.5366462 1.30118 0.5254429 -1.407826 0.1840788 2.069108 -3.303753 0.4182181 0.8117176 0.7902145 -3.783455 -1.342675 -1.257898 -0.4659544 2.687886 1.047318 -0.4372764 -1.53441 -1.341846 1.860011 0.3022571 0.2555989 -1.729253 -2.188909 -1.988297 1.441789 -1.926481 -1.433144 -2.289715 -3.23106 0.3611585 10.07293 1 100
-2.719797 0.7985564 -2.263851 1.012566 1.564488 0.0877011 3.225318 0.615869 2.15528 -0.3308161 0.6066019 1.833411 0.583431 -1.566007 0.1069087 1.855265 -3.354005 0.4590696 1.13186 0.7974924 -3.914653 -1.436763 -1.514824 -0.2977184 2.61602 1.303799 -0.505426 -1.553549 -1.184728 1.945101 0.6567472 0.5877273 -1.418602 -2.048769 -1.6909 1.679196 -1.674295 -1.14338 -2.001553 -3.168661 0.098947 8.06688 1 104
-2.40547 0.5936564 -2.270917 0.8207427 1.466608 -0.09813499 3.170228 0.8195478 2.160057 -0.216469 0.5437005 2.486831 0.5210419 -1.669815 0.0645768 1.7573 -3.407654 0.5329745 1.418802 0.9458408 -4.062863 -1.413222 -1.663565 -0.1297864 2.360868 1.159976 -0.5720198 -1.631774 -0.9574961 1.850152 0.7735481 0.7725788 -1.164482 -1.943975 -1.409844 1.836634 -1.431161 -1.045362 -1.765878 -2.950916 -0.2064615 6.361624 1 108
-2.049401 0.3702229 -2.375793 0.6212648 1.345058 -0.1930935 3.183552 0.7603645 1.974863 -0.260893 0.4036795 2.451437 0.375053 -1.747035 -0.09217136 1.753717 -3.53811 0.60625 1.192657 0.9529747 -4.223835 -1.333175 -1.712409 -0.0251641 2.027658 0.6506829 -0.5367383 -1.777937 -0.6829696 1.737004 0.7628809 0.772494 -0.9264082 -1.846506 -1.140859 1.969209 -1.189078 -0.991996 -1.533777 -2.581773 -0.4420302 7.290086 1 112
-2.200936 0.2141415 -2.599023 0.4803309 1.196069 -0.2974735 3.258477 0.4371722 1.833217 -0.6075714 0.4188654 1.449087 0.3717532 -1.901528 -0.3998799 1.732031 -3.79018 0.5841979 0.3139195 0.9449429 -4.441833 -1.388066 -1.8604 0.05711886 1.666783 0.5447426 -0.4785794 -2.035452 -0.4726862 1.677041 0.909914 0.6242495 -0.6864839 -1.820737 -0.8997024 2.042094 -0.9380571 -0.8447111 -1.29285 -2.318223 -0.4383921 10.95669 1 116
-2.853103 0.1544844 -2.836261 0.4243358 1.093272 -0.389964 3.378722 0.05921286 1.892177 -1.079932 0.5916417 0.368058 0.5567836 -2.182393 -0.7310293 1.637449 -4.105472 0.4622285 -0.5158249 1.378804 -4.750546 -1.640653 -2.160172 0.2236116 1.408532 1.229108 -0.5651245 -2.353948 -0.3816339 1.692136 1.327004 0.5703884 -0.376275 -1.869178 -0.6252714 2.043941 -0.6025212 -0.6011004 -0.9959767 -2.258549 -0.2081122 13.59116 1 120
-3.561402 0.1346073 -2.835604 0.3914459 1.16189 -0.2846482 3.529597 -0.1217563 2.1093 -1.337029 0.8299413 0.07452174 0.8443617 -2.52303 -0.8936209 1.534769 -4.41782 0.3212856 -0.6964266 2.195965 -5.124856 -1.962595 -2.476643 0.4505444 1.320854 2.229352 -0.8511158 -2.648866 -0.3948027 1.740151 1.812759 0.6904286 -0.07791745 -1.927541 -0.3764714 2.006302 -0.2954934 -0.4785956 -0.7360483 -2.311013 -0.01281461 12.96803 1 124
-3.949898 0.1253813 -2.621118 0.3509066 1.367017 0.001015576 3.658826 -0.2171459 2.33652 -1.402532 1.08119 0.2280147 1.134776 -2.831485 -0.8890995 1.484465 -4.733588 0.208013 -0.4896685 2.88101 -5.490391 -2.203233 -2.687398 0.6245636 1.396367 3.085324 -1.202128 -2.855672 -0.4328023 1.870989 2.144089 0.9034813 0.06958038 -1.988567 -0.2567645 2.119107 -0.159219 -0.6192445 -0.6515658 -2.348192 0.09118474 10.86789 1 128
-3.964985 0.1016273 -2.54741 0.3165203 1.525837 0.2749582 3.734165 -0.329526 2.353157 -1.386486 1.207765 0.4225294 1.275488 -3.059309 -0.8407678 1.451654 -4.982104 0.1267838 -0.3811938 3.122702 -5.757113 -2.356177 -2.772827 0.6995705 1.442523 3.362663 -1.47242 -2.947233 -0.4411985 2.014607 2.189651 1.01464 0.0398632 -2.101698 -0.2699178 2.378322 -0.1594659 -0.8671837 -0.7073398 -2.331178 -0.03454091 10.6551 1 132
-3.856013 0.02170493 -2.714338 0.2717863 1.598437 0.5264833 3.823715 -0.283143 2.104282 -1.188519 1.05429 0.6014645 1.116889 -3.194989 -0.7805285 1.366139 -4.998069 0.05735724 -0.5938438 3.067379 -5.843467 -2.513133 -2.782611 0.7251682 1.172863 2.843763 -1.614984 -2.945331 -0.4406694 1.858038 1.974763 0.7944404 -0.059952 -2.239817 -0.3296114 2.424027 -0.1788103 -0.9537371 -0.7344709 -2.295352 -0.5869234 13.72538 1 136
-4.090183 -0.153464 -2.836048 0.1343751 1.648502 0.8098665 3.941913 -0.06837476 1.82173 -0.8477885 0.6011271 0.5125808 0.6134369 -3.232487 -0.7068578 1.261805 -4.781022 -0.01974569 -0.8757679 2.981555 -5.724849 -2.669907 -2.667459 0.7708651 0.9103453 2.108264 -1.607512 -2.832841 -0.4149455 1.560727 1.779638 0.552659 -0.02667549 -2.22553 -0.2821555 2.272725 -0.08855148 -0.7139983 -0.5775594 -2.174781 -1.230351 16.56674 1 140
-4.684874 -0.3916289 -2.744457 -0.09944244 1.668894 0.9635168 3.976722 0.1766355 1.732121 -0.6173834 0.04178758 0.3335607 -0.02040462 -3.172828 -0.6641164 1.26953 -4.56723 -0.09187951 -0.7193924 2.764898 -5.52837 -2.753181 -2.352977 0.7815996 1.220335 1.683971 -1.508089 -2.623466 -0.3680628 1.613279 1.741424 0.7537073 0.1599569 -2.003983 -0.1170419 2.325371 0.08916244 -0.2894105 -0.2968754 -1.916286 -1.537056 15.7719 1 144
-4.958823 -0.5421925 -2.517239 -0.2721843 1.68547 0.8938544 3.961379 0.3978257 1.836633 -0.6364462 -0.2705946 0.4718148 -0.3655009 -3.080682 -0.7070718 1.415556 -4.566567 -0.1312994 -0.08381519 2.408911 -5.445205 -2.760609 -1.987456 0.6760139 1.966372 1.644923 -1.47367 -2.473065 -0.3714564 2.011075 1.734058 1.293075 0.3258657 -1.786488 0.03221959 2.655098 0.2078513 -0.0458663 -0.1003205 -1.633014 -1.526242 12.1178 1 148
-4.661716 -0.5349276 -2.298963 -0.3026292 1.759052 0.7473922 4.043167 0.554958 2.055319 -0.7976841 -0.1722553 0.7735651 -0.2622871 -3.028359 -0.8578923 1.557466 -4.759884 -0.1732122 0.5708354 2.228244 -5.526056 -2.7803 -1.770751 0.4600978 2.666605 1.962378 -1.580886 -2.497111 -0.4826463 2.462617 1.657752 1.7885 0.3346169 -1.763926 0.04383698 3.037081 0.1780544 -0.1133788 -0.1185939 -1.515744 -1.34499 8.462718 1 152
-4.379676 -0.4900084 -2.282322 -0.2854706 1.816865 0.5554076 4.186471 0.5999607 2.317217 -1.034214 0.1558533 0.8050252 0.07806351 -2.998712 -1.075869 1.560212 -4.988916 -0.2732806 0.6593842 2.258478 -5.671002 -2.900295 -1.755426 0.1898325 2.970714 2.27329 -1.704091 -2.617505 -0.6943489 2.738976 1.449291 1.901067 0.1230184 -1.903423 -0.1611567 3.276526 -0.03425134 -0.2517323 -0.3613902 -1.675923 -1.076864 8.700193 1 156
-4.528696 -0.513669 -2.468806 -0.3063981 1.760358 0.2803172 4.303764 0.640977 2.488964 -1.309915 0.5069406 0.7746323 0.4306429 -2.937406 -1.224376 1.478333 -5.118333 -0.3664657 0.1896924 2.257583 -5.739182 -3.035608 -1.892594 -0.04586691 2.661638 2.111704 -1.654913 -2.693352 -0.8969746 2.670773 1.123981 1.590842 -0.1930356 -1.996701 -0.4642871 3.279441 -0.3403257 -0.2308996 -0.6644638 -1.953798 -0.9517612 12.97719 1 160
-4.996296 -0.5839224 -2.56348 -0.3572884 1.652189 0.1025699 4.346562 0.9217172 2.452786 -1.335818 0.7404812 1.501525 0.6443167 -2.785851 -1.177571 1.482316 -5.064809 -0.3597262 -0.01765443 2.038112 -5.667363 -2.986816 -2.002608 -0.2511551 1.954849 1.379595 -1.407814 -2.690549 -0.9775257 2.361889 0.7460017 1.229788 -0.4337223 -1.89222 -0.6646071 3.158981 -0.573387 -0.1290933 -0.8554547 -2.088121 -1.224673 16.37385 1 164
-5.472179 -0.6138055 -2.448516 -0.3745382 1.568285 0.0800773 4.229155 1.323534 2.363558 -1.036504 0.7639353 2.670973 0.6466256 -2.552487 -1.065554 1.596032 -4.911735 -0.276941 0.248258 1.772656 -5.533098 -2.725477 -1.995421 -0.422117 1.293559 0.6625015 -1.094335 -2.677049 -0.9227844 2.066026 0.4197558 1.091494 -0.5609652 -1.702506 -0.7244663 3.138232 -0.654629 -0.1143418 -0.935615 -2.033932 -1.572259 16.48663 1 168
-5.590495 -0.6042957 -2.330625 -0.3739547 1.449721 -0.06712229 4.027382 1.441659 2.530502 -0.883404 0.6771783 2.968166 0.5542177 -2.384161 -1.172469 1.664485 -4.897235 -0.218518 0.3111325 1.958553 -5.457101 -2.447021 -2.044211 -0.4416476 0.9369898 0.7927868 -0.8845381 -2.711389 -0.8383882 1.932354 0.3426682 1.131272 -0.6038159 -1.627781 -0.6996953 3.279025 -0.6157016 -0.1516256 -0.9565579 -1.93039 -1.412321 15.3464 1 172
-5.088677 -0.6146253 -2.297917 -0.4114283 1.251767 -0.4380883 3.977671 1.266074 3.064422 -1.172501 0.7023087 2.319454 0.6095315 -2.409491 -1.527532 1.596765 -5.046245 -0.266675 0.04423158 2.775448 -5.489237 -2.389489 -2.26658 -0.3282446 0.9870605 1.787786 -0.9135044 -2.823688 -0.9089703 1.992126 0.5375117 1.222665 -0.6365494 -1.718109 -0.6925524 3.401753 -0.5965809 -0.1867784 -0.9956818 -1.994186 -0.7443482 14.4211 1 176
-4.160163 -0.590053 -2.310708 -0.4113798 1.042977 -0.7510479 4.101666 1.037526 3.794204 -1.606739 0.9457278 1.723481 0.9133461 -2.573244 -1.881804 1.455472 -5.182333 -0.399076 -0.1651745 3.800612 -5.607361 -2.593313 -2.601908 -0.2304513 1.23105 2.900555 -1.13649 -3.046004 -1.152198 2.074873 0.806486 1.217227 -0.6739437 -1.946926 -0.7501311 3.293746 -0.6638339 -0.3245151 -1.104394 -2.329351 0.08329663 13.77028 1 180
-3.383606 -0.4962606 -2.380566 -0.3190106 0.9528488 -0.7567832 4.20364 0.9351525 4.289611 -1.770556 1.173016 1.647931 1.184345 -2.652927 -2.003192 1.369157 -5.236051 -0.5099955 -0.2359449 4.367648 -5.713246 -2.783492 -2.945201 -0.2224796 1.329213 3.296683 -1.324716 -3.307035 -1.351597 2.009029 0.9117515 1.069856 -0.6981716 -2.229159 -0.8353357 3.067777 -0.7611682 -0.5563478 -1.243953 -2.725935 0.6532218 13.98188 1 184
-3.011376 -0.3990508 -2.406231 -0.202404 1.051704 -0.4879917 4.216955 1.03763 4.325322 -1.629912 1.137587 1.918747 1.159886 -2.476326 -1.851648 1.462469 -5.242752 -0.5266951 -0.232993 4.228925 -5.688993 -2.692333 -3.227002 -0.2648039 1.199044 2.87516 -1.348337 -3.460223 -1.376705 1.821725 0.7755162 0.9413082 -0.7799774 -2.388094 -0.9511164 3.004785 -0.8868143 -0.6911013 -1.378879 -2.891618 0.7859949 14.55053 1 188
-2.866704 -0.3132891 -2.34994 -0.103549 1.248533 -0.2217844 4.21295 1.066476 4.25383 -1.57165 1.01941 2.145647 1.033623 -2.142521 -1.617068 1.692328 -5.295643 -0.4770312 -0.2547604 3.808025 -5.573392 -2.446729 -3.50363 -0.2537028 0.9421281 2.54726 -1.300818 -3.53313 -1.319604 1.615068 0.6697828 0.9299019 -0.8977764 -2.40923 -1.075751 3.110552 -1.020671 -0.6825132 -1.502673 -2.875453 0.9965607 14.31694 1 192
-2.678797 -0.1641719 -2.221444 0.03305319 1.471707 -0.08003808 4.305468 0.9440775 4.432247 -1.824459 1.001054 2.128292 1.019868 -1.850123 -1.474912 1.880267 -5.394058 -0.4600845 -0.400083 3.515213 -5.490861 -2.360292 -3.838638 -0.1932911 0.6951481 2.802413 -1.320924 -3.669597 -1.320488 1.449822 0.748588 0.9443215 -1.042546 -2.498799 -1.237477 3.192335 -1.191893 -0.6110368 -1.673682 -2.946843 1.561699 13.81887 1 196
-2.370189 0.04063242 -1.94465 0.2080208 1.724436 0.106586 4.539721 1.045526 4.786236 -2.147637 0.9573936 2.079311 1.020949 -1.651861 -1.390922 1.956499 -5.436419 -0.5354661 -0.6429412 3.322016 -5.461348 -2.484908 -4.223995 -0.1917188 0.4259898 3.08516 -1.440221 -3.914616 -1.427264 1.239812 0.8213812 0.8632593 -1.238095 -2.726216 -1.460165 3.133126 -1.435385 -0.4976068 -1.89358 -3.108879 2.026999 14.2411 1 200
-2.213946 0.1595013 -1.700629 0.3016924 1.916072 0.3379383 4.740162 1.316967 5.009354 -2.282544 0.7978238 2.121095 0.9089874 -1.506126 -1.297305 1.973182 -5.468356 -0.6449621 -0.9378076 3.237922 -5.457576 -2.578115 -4.627968 -0.2021582 0.03888596 3.068361 -1.545202 -4.219105 -1.538573 0.9071949 0.8979648 0.6694132 -1.326555 -2.930934 -1.564964 2.950851 -1.549252 -0.4011388 -1.993303 -3.148589 2.16572 15.61601 1 204
-2.35399 0.1809023 -1.668363 0.3161988 1.991833 0.5205916 4.772447 1.410702 4.930075 -2.25975 0.5740178 2.059989 0.7004156 -1.332641 -1.186206 2.034186 -5.539036 -0.6911145 -1.262209 3.429723 -5.433908 -2.445718 -4.955105 -0.1162731 -0.3832505 2.872062 -1.492105 -4.484729 -1.525355 0.5329596 1.035124 0.4358312 -1.277495 -3.004892 -1.498666 2.756545 -1.459074 -0.4265203 -1.949349 -3.02675 2.211673 17.0072 1 208
-2.578324 0.2457648 -1.673911 0.387513 2.05975 0.7444603 4.760365 1.328725 4.747351 -2.257065 0.3872325 1.682982 0.5240818 -1.089959 -1.059571 2.189141 -5.536659 -0.6784338 -1.705597 3.820769 -5.304888 -2.19817 -5.137936 -0.0529907 -0.7093341 2.434103 -1.31231 -4.659015 -1.461437 0.220887 0.9232786 0.1341936 -1.378044 -3.047312 -1.566922 2.619093 -1.496239 -0.6172367 -2.034628 -2.982015 2.396127 18.93224 1 212
-2.608916 0.4434866 -1.557012 0.5853849 2.194759 1.017672 4.850785 1.227402 4.754836 -2.264466 0.4371091 1.111004 0.5828059 -0.882783 -0.9158091 2.319793 -5.358141 -0.6940399 -2.180105 4.220673 -5.08369 -2.087836 -5.180998 -0.129388 -0.8302581 2.042284 -1.19076 -4.811673 -1.509673 0.04561751 0.4978468 -0.2616772 -1.768872 -3.23695 -1.94928 2.431975 -1.855416 -0.9528064 -2.380895 -3.302945 2.704748 21.52622 1 216
-2.460907 0.6957746 -1.395152 0.819546 2.293679 1.122708 4.988488 1.11432 5.032656 -2.146833 0.7859473 0.8238085 0.9145325 -0.823483 -0.7421036 2.309598 -5.044161 -0.775874 -2.283446 4.646282 -4.911499 -2.166785 -5.109419 -0.2039503 -0.7515646 2.335729 -1.234416 -4.990557 -1.654323 -0.005809465 0.2928272 -0.558676 -2.118055 -3.570256 -2.323578 2.124364 -2.208824 -1.348986 -2.711554 -3.917881 3.093359 22.06448 1 220
-2.337079 0.8352637 -1.239053 0.9337178 2.314562 0.9976845 5.004616 1.042266 5.299066 -1.938679 1.114646 0.97104 1.217777 -0.8315893 -0.51343 2.250335 -4.725776 -0.8909727 -1.971838 5.122779 -4.841925 -2.252146 -4.939352 -0.1636905 -0.6225886 3.015456 -1.362066 -5.087245 -1.767198 -0.03748238 0.5103271 -0.6342216 -2.167244 -3.839158 -2.388728 1.853931 -2.261581 -1.698622 -2.796374 -4.40185 3.398426 19.82803 1 224
-2.037351 0.9185776 -0.9917933 1.001274 2.41555 0.9673874 4.870441 1.27979 5.134489 -1.749573 1.139772 1.100818 1.234463 -0.7436652 -0.2343111 2.287643 -4.491637 -1.024871 -1.751413 5.492247 -4.799706 -2.218238 -4.699652 -0.1123442 -0.5974445 3.070719 -1.448089 -5.009906 -1.833697 -0.1392679 0.608859 -0.7101181 -2.197154 -3.948646 -2.352353 1.696539 -2.243304 -1.991482 -2.812934 -4.51573 3.156193 18.27987 1 228
-1.422664 1.105117 -0.7439975 1.186212 2.643351 1.238779 4.712348 1.788201 4.625526 -1.604264 0.9114076 1.002522 0.9925986 -0.5679552 0.03849806 2.374815 -4.325408 -1.192124 -1.842147 5.545874 -4.723844 -2.12162 -4.467453 -0.142317 -0.6893814 2.495335 -1.439085 -4.805862 -1.911302 -0.276659 0.3798312 -0.956601 -2.398982 -3.981884 -2.44626 1.512412 -2.379268 -2.271619 -2.938683 -4.43273 2.441404 19.0878 1 232
-0.9748453 1.323704 -0.6998463 1.407788 2.834533 1.561195 4.577571 2.136102 4.157507 -1.370983 0.5578189 1.145858 0.611084 -0.45857 0.2509846 2.340621 -4.105961 -1.378445 -1.67186 5.155048 -4.574036 -2.062458 -4.183263 -0.2132719 -0.5611869 2.198795 -1.308537 -4.523765 -1.956455 -0.2002233 0.358946 -1.105328 -2.500936 -4.007229 -2.506761 1.263215 -2.46455 -2.506564 -3.032882 -4.443878 1.816574 19.11449 1 236
-0.8324184 1.456991 -0.6999152 1.532547 2.914003 1.719962 4.440582 2.281687 3.803406 -0.9003466 0.2010872 1.812296 0.2582589 -0.4182971 0.4382169 2.17603 -3.741824 -1.508296 -0.9090973 4.472764 -4.336999 -2.042414 -3.760551 -0.2724533 -0.07202914 2.322273 -1.085724 -4.245623 -1.915245 0.09894156 0.7165568 -1.031795 -2.448148 -4.059877 -2.45686 0.9603647 -2.416001 -2.694955 -3.033978 -4.646195 1.351525 16.57144 1 240
-0.5912365 1.510046 -0.5510978 1.568486 2.961761 1.774314 4.37526 2.426365 3.501027 -0.3292525 -0.02437752 2.520983 0.06659215 -0.2278058 0.6755316 2.112992 -3.36907 -1.455997 -0.2170215 4.015013 -4.082559 -1.912225 -3.399019 -0.2490045 0.1697037 2.311097 -0.8307361 -4.106654 -1.775251 0.09531625 1.006555 -1.126217 -2.493187 -4.139225 -2.478322 0.4683878 -2.425927 -2.921866 -3.066998 -4.861048 1.062076 14.01254 1 244
-0.2583519 1.523055 -0.4407994 1.581901 3.043467 1.757102 4.439194 2.420758 3.268582 0.01640314 -0.08911562 2.797363 0.0319894 0.1922257 0.9156954 2.307697 -3.226297 -1.198865 -0.1814736 4.071042 -3.9231 -1.594314 -3.313585 -0.1175374 -0.2546671 1.974379 -0.5593067 -4.0911 -1.534827 -0.4308528 0.9788917 -1.559866 -2.651942 -4.207966 -2.608598 -0.157533 -2.526418 -3.164613 -3.154968 -4.876606 1.259631 13.54334 1 248
-0.01705232 1.535955 -0.4154589 1.612942 3.225101 1.716831 4.588984 2.248646 3.048057 0.03620505 -0.0745873 2.757606 0.08330559 0.6469975 1.095364 2.643242 -3.289587 -0.895989 -0.5737646 4.271572 -3.878658 -1.266222 -3.406914 -0.05019509 -0.8962091 1.310722 -0.3290978 -4.07271 -1.329763 -1.020408 0.6509424 -2.077405 -2.880033 -4.27516 -2.831547 -0.6582206 -2.717441 -3.338938 -3.318137 -4.744506 1.705209 15.18034 1 252
0.2753723 1.592094 -0.2341293 1.665388 3.538014 1.775867 4.794293 2.234231 2.788513 -0.07470935 -0.02354279 2.693857 0.1571463 0.9440958 1.251685 2.899919 -3.319259 -0.7153011 -0.8742792 4.253956 -3.868869 -1.147784 -3.443098 -0.160212 -1.199849 0.6026803 -0.2326863 -4.036151 -1.324164 -1.293393 0.215644 -2.453528 -3.159168 -4.382119 -3.1009 -1.003806 -2.990495 -3.480945 -3.519884 -4.671036 1.788816 17.23778 1 256
0.7164214 1.67098 0.07738261 1.705673 3.840497 1.94254 4.959123 2.375304 2.537008 -0.1677147 0.06087178 2.642195 0.2258412 1.008036 1.363076 2.943435 -3.257282 -0.7160288 -0.9175543 4.10041 -3.869686 -1.249427 -3.335091 -0.3476159 -1.110157 0.2617929 -0.2559198 -4.050643 -1.475697 -1.307979 -0.01416822 -2.663017 -3.292099 -4.483502 -3.211896 -1.330363 -3.151299 -3.625116 -3.58754 -4.720732 1.467664 18.24232 1 260
1.280916 1.697276 0.2721381 1.703964 4.022808 2.181937 4.965853 2.425191 2.227173 -0.2288898 0.045476 2.465964 0.1857246 0.9090174 1.403852 2.867193 -3.197991 -0.8825769 -0.9698296 3.910556 -3.895886 -1.377023 -3.157645 -0.5173349 -0.8996199 -0.02178944 -0.2804382 -4.116935 -1.596681 -1.304654 -0.03349196 -2.888405 -3.212434 -4.497293 -3.131412 -1.726232 -3.117694 -3.777344 -3.49576 -4.760298 1.026954 19.49571 1 264
2.026517 1.703322 0.342861 1.722079 4.213295 2.569211 4.903246 2.487446 1.777105 -0.237481 -0.2516578 2.136855 -0.1359847 0.8350924 1.448415 2.894462 -3.181426 -1.158108 -1.223161 3.640922 -3.929592 -1.382176 -3.012888 -0.6505461 -0.8063741 -0.5856154 -0.2483009 -4.159996 -1.589013 -1.45592 -0.08481611 -3.281395 -3.112056 -4.474238 -3.049438 -2.217803 -3.027535 -4.021338 -3.364278 -4.633967 0.5093795 22.06486 1 268
2.786802 1.713529 0.4820333 1.745452 4.492306 3.113607 4.881998 2.762375 1.351418 -0.248915 -0.7858244 1.825255 -0.7097099 0.8339311 1.485885 3.013599 -3.279078 -1.477625 -1.563269 3.292257 -3.990547 -1.339684 -2.983918 -0.7855873 -0.8094195 -1.094656 -0.2197714 -4.108318 -1.545488 -1.698322 -0.2545188 -3.729092 -3.117031 -4.492878 -3.040257 -2.689103 -2.976066 -4.305149 -3.261368 -4.371586 -0.1201768 25.21692 1 272
3.16361 1.674754 0.7515207 1.689388 4.748902 3.624101 4.853687 3.191746 1.102559 -0.2614113 -1.242565 1.829776 -1.206179 0.7826555 1.457259 3.028551 -3.465021 -1.768105 -1.677777 2.906172 -4.08243 -1.408527 -3.032928 -0.9740664 -0.7173845 -1.362012 -0.2282694 -3.937583 -1.571338 -1.793652 -0.4469323 -3.949723 -3.148041 -4.518188 -3.021801 -2.936382 -2.947182 -4.387904 -3.16836 -4.155303 -0.8425249 27.44688 1 276
3.215523 1.625255 1.052339 1.621355 4.927407 3.968924 4.800654 3.772257 0.9132696 0.008080721 -1.401702 2.478139 -1.384322 0.6383379 1.472876 2.928657 -3.496177 -1.951193 -1.267964 2.30287 -4.132301 -1.61492 -2.96651 -1.264425 -0.4737557 -1.764343 -0.2459418 -3.682366 -1.691691 -1.703906 -0.6841385 -3.861749 -3.16944 -4.479885 -3.016097 -2.963097 -2.969925 -4.202162 -3.085781 -4.057641 -1.783566 27.58907 1 280
3.43012 1.595612 1.315663 1.595636 5.062712 4.174155 4.755715 4.518538 0.6576071 0.6876861 -1.427997 3.737425 -1.429494 0.5232044 1.671453 2.872118 -3.268785 -2.012898 -0.4532845 1.391819 -4.092109 -1.783849 -2.700631 -1.651235 -0.3095829 -2.44962 -0.2598022 -3.405344 -1.864504 -1.68901 -1.001132 -3.709225 -3.263882 -4.337933 -3.101985 -2.980201 -3.076833 -3.939317 -3.061027 -3.964891 -2.947114 26.19231 1 284
3.838996 1.549189 1.451787 1.55616 5.15408 4.184025 4.675353 4.929735 0.4700943 1.282862 -1.549704 4.544979 -1.597282 0.5306356 1.943242 2.927444 -3.04079 -2.013433 -0.01190047 0.800485 -3.9923 -1.744542 -2.481149 -1.948578 -0.4783604 -2.898316 -0.2314854 -3.209128 -1.939855 -1.908438 -1.151059 -3.724235 -3.322827 -4.156816 -3.147747 -3.065547 -3.128394 -3.794146 -3.04717 -3.776247 -3.618669 25.1391 1 288
4.014273 1.494849 1.350729 1.493329 5.172598 3.918294 4.536255 4.485615 0.5711755 1.211095 -1.671037 3.801308 -1.761654 0.5632174 2.050171 3.023977 -3.09389 -2.019739 -0.6757088 1.135901 -3.921783 -1.586282 -2.633439 -2.01363 -0.9355471 -2.790812 -0.141944 -3.234175 -1.883529 -2.23989 -1.05283 -3.991808 -3.21534 -4.104017 -3.064994 -3.16259 -3.044403 -3.83255 -3.011865 -3.583341 -3.091968 26.93598 1 292
3.918423 1.503932 1.177434 1.486899 5.204864 3.633517 4.512065 3.628966 0.8703051 0.6830128 -1.649637 2.391003 -1.735443 0.5396988 2.008855 3.116506 -3.289005 -2.019671 -1.838361 2.030827 -3.920066 -1.506255 -3.083292 -1.956744 -1.402323 -2.4454 -0.07823787 -3.45699 -1.849111 -2.473215 -0.9700348 -4.354844 -3.122189 -4.236523 -3.022428 -3.259224 -2.993603 -3.958035 -3.063928 -3.613446 -1.961507 30.5532 1 296
4.006037 1.630448 1.253858 1.603008 5.458812 3.714247 4.80059 3.231571 1.029671 0.424899 -1.620151 2.044691 -1.66662 0.5611334 2.071581 3.285039 -3.245036 -1.931688 -2.12874 2.597571 -3.900593 -1.531017 -3.389516 -1.985223 -1.51192 -2.253036 -0.1458315 -3.645824 -1.934752 -2.433736 -1.06244 -4.429463 -3.246206 -4.410958 -3.152952 -3.302383 -3.133987 -4.019814 -3.283238 -3.955819 -1.372493 30.98034 1 300
4.501889 1.800083 1.577501 1.766505 5.902443 4.021285 5.259659 3.379202 0.9725355 0.6368723 -1.588037 2.73678 -1.596635 0.6946665 2.297959 3.577928 -2.941881 -1.75594 -1.399792 2.521428 -3.830259 -1.551958 -3.343271 -2.168829 -1.136606 -2.23405 -0.3595692 -3.696535 -2.130664 -2.114927 -1.284074 -4.137239 -3.550605 -4.493829 -3.42565 -3.199484 -3.433538 -4.062835 -3.629901 -4.419762 -1.404716 27.24377 1 304
4.903522 1.865222 1.774959 1.837725 6.204874 4.073777 5.543859 3.416112 0.9368014 0.9273748 -1.374163 3.184173 -1.345654 0.8799827 2.477727 3.894411 -2.688279 -1.590891 -0.7120089 2.32477 -3.771835 -1.48859 -3.168471 -2.319265 -0.6519008 -2.116017 -0.5938086 -3.710229 -2.324355 -1.770562 -1.452976 -3.816501 -3.836529 -4.492683 -3.701689 -2.954976 -3.699496 -4.222175 -3.979681 -4.758911 -1.222207 23.51847 1 308
4.674869 1.796766 1.603386 1.808863 6.237072 3.821584 5.553359 3.095909 0.9852197 1.102132 -1.234066 3.055346 -1.153746 1.077553 2.523405 4.138713 -2.520605 -1.515844 -0.5331683 2.237073 -3.659081 -1.374174 -3.013541 -2.301265 -0.3771323 -2.02951 -0.6741049 -3.67152 -2.404531 -1.587384 -1.448439 -3.646665 -3.924508 -4.424034 -3.823135 -2.626811 -3.771269 -4.402894 -4.204183 -4.912148 -0.5946255 22.11715 1 312
4.009763 1.711334 1.219495 1.793083 6.159244 3.599296 5.462886 2.809258 0.9562237 1.30048 -1.446958 3.074731 -1.318039 1.229303 2.539018 4.254786 -2.225582 -1.561536 -0.3971792 2.07353 -3.402143 -1.346686 -2.803146 -2.199787 -0.2333175 -2.328827 -0.5903608 -3.494236 -2.446158 -1.490733 -1.339192 -3.500633 -3.818022 -4.320411 -3.760977 -2.287849 -3.678508 -4.41446 -4.2602 -4.994305 -0.172211 21.63895 1 316
3.320432 1.675618 0.9031202 1.81557 6.05756 3.548685 5.394321 2.764982 0.8597309 1.513648 -1.71771 3.386356 -1.585142 1.208365 2.533336 4.152577 -1.805456 -1.734224 -0.06295013 1.986679 -3.113767 -1.490226 -2.511889 -2.075402 -0.01382331 -2.678375 -0.510289 -3.247636 -2.57501 -1.324726 -1.172726 -3.281269 -3.653266 -4.28458 -3.620585 -1.986307 -3.53136 -4.295094 -4.20173 -5.163796 -0.2762971 20.79262 1 320
2.76645 1.572065 0.7589438 1.727441 5.87914 3.567335 5.296335 2.818861 0.8461828 1.511463 -1.836689 3.401178 -1.75294 0.9884475 2.446152 3.855428 -1.460811 -2.024807 0.1888785 1.949128 -2.945842 -1.716562 -2.128254 -1.985489 0.4177394 -2.5865 -0.5643297 -2.996475 -2.761533 -1.006474 -0.9427474 -3.033275 -3.50479 -4.306116 -3.486105 -1.636845 -3.375289 -4.23853 -4.097757 -5.41252 -0.576869 20.3863 1 324
2.469351 1.331669 0.6948791 1.469979 5.624677 3.56863 5.154843 2.778797 0.8952927 1.213753 -1.931899 2.916349 -1.912694 0.7133664 2.304559 3.555633 -1.347792 -2.319863 0.1147603 1.858508 -2.896919 -1.856134 -1.703879 -1.946799 0.8007451 -2.146014 -0.7289265 -2.718478 -2.861129 -0.6724412 -0.6623025 -2.83984 -3.290536 -4.268282 -3.284503 -1.218919 -3.159086 -4.325579 -3.926141 -5.513164 -0.7147269 20.78023 1 328
2.603833 1.178531 0.7063935 1.287562 5.45796 3.578606 5.099574 2.678695 0.9054434 0.8675735 -2.016646 2.292143 -2.045617 0.5178382 2.153948 3.395216 -1.419055 -2.414674 -0.1546105 1.990265 -2.86889 -1.835763 -1.435563 -1.797442 0.7318323 -1.533366 -0.9197508 -2.455507 -2.78308 -0.5205874 -0.3304739 -2.684048 -3.003851 -4.180386 -2.981422 -0.8897673 -2.908438 -4.44475 -3.694211 -5.393265 -0.7221508 19.98779 1 332
2.929926 1.253608 0.8101456 1.33491 5.474699 3.576036 5.204556 2.603815 0.979394 0.6823 -1.990748 1.79922 -2.041351 0.3515448 1.986283 3.311379 -1.509922 -2.267929 -0.3957603 2.413174 -2.844023 -1.80662 -1.437189 -1.408861 0.3440629 -0.7257388 -1.118681 -2.341876 -2.620367 -0.5162622 0.09196832 -2.521014 -2.78053 -4.197285 -2.731051 -0.7317875 -2.741474 -4.461847 -3.501212 -5.33759 -0.7059223 17.58798 1 336
2.855008 1.278224 0.8531858 1.350867 5.532847 3.44798 5.336256 2.448046 1.159423 0.6065646 -1.83251 1.545598 -1.8714 0.1468547 1.822987 3.194345 -1.557835 -2.015112 -0.5169836 2.816844 -2.86976 -1.889326 -1.600779 -0.904422 0.09401042 -0.06378718 -1.319416 -2.416368 -2.510028 -0.5017142 0.5745788 -2.379485 -2.623118 -4.329395 -2.617987 -0.6722431 -2.639413 -4.371633 -3.350729 -5.511528 -0.5803133 15.88168 1 340
2.36367 1.008015 0.8290417 1.09615 5.507473 3.249803 5.328607 2.225981 1.182752 0.598768 -1.700329 1.732618 -1.707589 0.03163455 1.767909 3.138065 -1.557701 -1.731774 -0.3512067 2.888457 -2.86649 -1.87137 -1.710626 -0.500737 0.1056192 -0.05131121 -1.374483 -2.477226 -2.39156 -0.4485553 0.9651399 -2.191791 -2.407829 -4.320568 -2.51245 -0.5625609 -2.469536 -4.231477 -3.14667 -5.628498 -0.4029016 14.59556 1 344
2.031075 0.6111137 0.7793019 0.7233307 5.396776 3.106608 5.210174 2.02824 0.9244233 0.6902357 -1.791882 2.328375 -1.793866 0.1045417 1.827242 3.267249 -1.527232 -1.4359 0.1934113 2.639465 -2.740057 -1.567718 -1.63273 -0.2655258 0.2099956 -0.3700284 -1.180067 -2.330335 -2.158206 -0.364406 1.226342 -1.825537 -2.090212 -4.043984 -2.266104 -0.2992188 -2.157003 -4.104123 -2.870508 -5.417115 -0.2780605 11.21191 1 348
2.170607 0.3269012 0.5994695 0.4653229 5.251369 2.997976 5.109348 1.88001 0.5960162 0.8727883 -1.982412 3.100995 -2.02039 0.2386613 1.828165 3.42478 -1.510658 -1.214347 0.8898737 2.407091 -2.582717 -1.205343 -1.424122 -0.1921268 0.3365698 -0.5581273 -0.9685293 -2.080847 -1.953142 -0.1688218 1.334027 -1.401553 -1.863184 -3.758987 -2.032692 0.04908039 -1.874601 -4.067356 -2.689925 -5.136676 -0.2722478 7.079694 1 352
2.540359 0.1782293 0.3235811 0.3459103 5.149403 2.932081 5.096265 1.83814 0.3913563 1.078817 -1.949273 3.753179 -2.029528 0.2864014 1.718114 3.386363 -1.499908 -1.136436 1.275092 2.477216 -2.518101 -1.088201 -1.294432 -0.2216244 0.3757015 -0.8463709 -1.004582 -1.970612 -1.960366 0.0007643862 1.229642 -1.287919 -1.875804 -3.746642 -2.023018 0.2024076 -1.835082 -4.148046 -2.714092 -5.213637 -0.4504553 6.235073 1 356
2.750331 0.1403677 0.08673681 0.3239901 5.078349 2.934524 5.148555 1.8301 0.3530733 1.187935 -1.66625 3.841015 -1.776862 0.2475459 1.614839 3.179862 -1.486991 -1.128271 1.087468 2.787605 -2.534412 -1.161419 -1.369059 -0.196008 0.1908424 -1.124617 -1.186397 -2.050036 -2.065116 -0.1347779 1.145592 -1.602624 -1.898879 -3.914956 -2.061767 -0.0945759 -1.888904 -4.259825 -2.758761 -5.566854 -0.5855627 8.584225 1 360
2.52993 0.1723594 -0.08734803 0.3467412 4.919256 2.835526 5.113231 1.584116 0.4934178 1.037644 -1.311124 3.191703 -1.444993 0.1682456 1.497269 2.974961 -1.568273 -1.079275 0.5279772 3.157855 -2.595404 -1.17574 -1.542561 -0.03634418 -0.07624624 -0.8519175 -1.305035 -2.173198 -2.029704 -0.4306567 1.316498 -1.970012 -1.716554 -3.962386 -1.923316 -0.555031 -1.793823 -4.284418 -2.636786 -5.737194 -0.2933098 10.7139 1 364
1.942917 0.1913695 -0.2087998 0.3452648 4.640715 2.471228 4.928398 1.001498 0.6794025 0.5612869 -0.8843915 2.049575 -1.016495 0.05178881 1.252768 2.888233 -1.833337 -0.9425197 -0.1499901 3.682654 -2.724862 -1.055828 -1.700312 0.22269 -0.2933379 -0.1246117 -1.362271 -2.248188 -1.804624 -0.5941699 1.655139 -2.05863 -1.40583 -3.817937 -1.630257 -0.6842317 -1.542096 -4.220624 -2.366862 -5.491117 0.3540329 11.24236 1 368
1.583759 0.1881702 -0.2938529 0.3385338 4.360617 1.95091 4.795912 0.422786 0.650609 0.01535166 -0.3886977 1.020227 -0.4753613 -0.1055109 0.9237865 2.928484 -2.142033 -0.7138751 -0.7069611 4.389628 -2.894379 -0.9234716 -1.800401 0.4835086 -0.4956392 0.4176657 -1.432444 -2.252306 -1.561157 -0.6744554 1.929766 -1.961122 -1.163072 -3.64821 -1.344776 -0.5471668 -1.279732 -4.114575 -2.081029 -4.991699 0.7523491 10.8399 1 372
1.800294 0.145567 -0.4469803 0.3219669 4.1647 1.51269 4.876663 0.1194583 0.3782221 -0.3278891 -0.0987423 0.5667862 -0.1321236 -0.3282881 0.6643376 2.993825 -2.267357 -0.4642781 -0.9268749 4.883381 -3.013612 -0.9282532 -1.771325 0.6286478 -0.6004262 0.5222961 -1.520188 -2.132068 -1.4747 -0.6799066 2.03268 -1.819849 -1.046902 -3.526964 -1.168918 -0.40908 -1.093821 -3.923129 -1.844413 -4.523379 0.5691067 10.2889 1 376
2.125324 0.03137951 -0.6810703 0.2470939 4.065125 1.327978 5.108051 0.04623938 0.002611724 -0.4723319 -0.2273837 0.5781255 -0.2554908 -0.6208028 0.5572786 3.026174 -2.169922 -0.2536077 -0.876952 4.772432 -3.070893 -1.080494 -1.626234 0.6537409 -0.5671214 0.3718843 -1.596197 -1.922204 -1.481614 -0.5721881 2.108591 -1.662984 -0.875872 -3.396665 -0.9656261 -0.3279496 -0.8762096 -3.647953 -1.552299 -4.213682 -0.04973404 10.02143 1 380
1.903429 -0.1300937 -0.8808378 0.1228507 4.035597 1.355979 5.361977 0.1468158 -0.3656432 -0.4087305 -0.6065117 0.9605666 -0.6897483 -0.8855121 0.5784175 3.122263 -1.957432 -0.02791331 -0.6008234 4.040362 -3.113301 -1.209356 -1.401364 0.646344 -0.5259189 0.07809901 -1.61638 -1.717713 -1.380995 -0.5686141 2.294341 -1.532722 -0.4791341 -3.186668 -0.5780548 -0.360954 -0.4844205 -3.413189 -1.112766 -3.937109 -0.7938412 9.318661 1 384
1.157452 -0.3251576 -0.9723772 -0.04661547 4.031435 1.410826 5.565701 0.2825193 -0.5949247 -0.1638503 -1.022832 1.433086 -1.17257 -0.9999837 0.6763019 3.368336 -1.789257 0.2453645 -0.2348739 2.97113 -3.137288 -1.175688 -1.129109 0.6839694 -0.5775765 -0.1279971 -1.576164 -1.56428 -1.116933 -0.7639031 2.538637 -1.440601 0.05690878 -2.903128 -0.09197985 -0.4783919 0.02415549 -3.304732 -0.6197835 -3.522445 -1.211237 7.61779 1 388
0.5867314 -0.510878 -0.9266533 -0.2234196 4.065709 1.433283 5.713042 0.3417259 -0.7005689 0.003918344 -1.463856 1.471141 -1.618904 -0.9326838 0.7851245 3.705021 -1.761377 0.4995291 -0.2679653 1.893364 -3.107265 -1.041356 -1.032544 0.7298033 -0.8345314 -0.2460595 -1.511207 -1.500694 -0.8296313 -1.023684 2.649437 -1.478715 0.4149619 -2.700544 0.2333641 -0.5747431 0.3784261 -3.283112 -0.2877496 -3.04926 -1.242599 7.245364 1 392
0.473529 -0.6034756 -0.9073385 -0.3084027 4.098475 1.417536 5.846675 0.3225797 -0.7868062 -0.1671153 -1.838297 1.022831 -1.947976 -0.8345953 0.7991269 3.959104 -1.834493 0.6600023 -0.967886 1.042745 -3.038489 -0.978953 -1.27055 0.6858596 -1.3089 -0.6510589 -1.440645 -1.549433 -0.6796286 -1.29527 2.505029 -1.844572 0.4532937 -2.71492 0.2874865 -0.7509838 0.4239515 -3.303981 -0.192935 -2.797184 -1.261729 11.27734 1 396
0.4493956 -0.5852317 -1.137242 -0.2756394 4.059302 1.328157 6.032349 0.1000706 -0.7891552 -0.6411879 -1.89683 0.3537725 -1.98258 -0.870034 0.6918756 4.012499 -1.954343 0.7226358 -1.996101 0.6737923 -3.001314 -1.079658 -1.656037 0.6026874 -1.76304 -1.104884 -1.438843 -1.698942 -0.6736006 -1.577424 2.277799 -2.499724 0.3759772 -2.925298 0.2256651 -1.135353 0.3138192 -3.446628 -0.2285468 -2.962761 -1.23629 18.33688 1 400
0.3188714 -0.5073351 -1.426095 -0.1911197 4.040492 1.256539 6.299458 -0.352506 -0.7012379 -1.104856 -1.519286 -0.09065845 -1.615036 -0.9541175 0.6100349 4.019417 -2.084076 0.7761481 -2.709859 0.9656151 -3.019179 -1.200819 -1.898257 0.582889 -2.045585 -1.247363 -1.566878 -1.8979 -0.6945219 -1.846795 2.086205 -3.124998 0.3036666 -3.222983 0.1416574 -1.602247 0.1993878 -3.79417 -0.3612144 -3.436516 -0.884732 23.49997 1 404
0.2962185 -0.3609627 -1.314028 -0.05901261 4.193933 1.345168 6.635573 -0.7230723 -0.7403659 -1.365167 -0.909646 -0.0495426 -1.019629 -0.9331011 0.6611987 4.260697 -2.167457 0.961077 -2.816993 1.677861 -3.005039 -1.091314 -1.889282 0.641848 -2.202823 -1.448326 -1.703277 -2.034826 -0.6165593 -2.092517 1.778305 -3.509235 0.106628 -3.478049 -0.03793469 -1.988624 0.01448536 -4.271127 -0.6300632 -3.885844 -0.4961063 24.26697 1 408
0.5484869 -0.1141973 -0.759937 0.1616804 4.534857 1.60807 6.997118 -0.7791052 -0.9985746 -1.434725 -0.5585738 0.1602503 -0.6763918 -0.7954754 0.800597 4.748537 -2.124711 1.305774 -2.51852 2.169557 -2.859932 -0.7411045 -1.684037 0.7698509 -2.212644 -1.813501 -1.703606 -2.005297 -0.3868739 -2.254877 1.434787 -3.6311 -0.2101979 -3.619758 -0.2710168 -2.249648 -0.2488492 -4.690667 -0.9203061 -4.128477 -0.4918229 21.64443 1 412
0.9375966 0.1186431 -0.2089027 0.3742311 4.912796 1.963107 7.291276 -0.6393629 -1.268137 -1.296921 -0.7589829 0.337958 -0.897748 -0.6384187 0.9894232 5.182348 -1.880671 1.613567 -2.019703 2.063093 -2.605762 -0.4283487 -1.380573 0.8768663 -1.986005 -1.927578 -1.640844 -1.855233 -0.14206 -2.235996 1.357136 -3.521062 -0.4254336 -3.677157 -0.4021167 -2.358683 -0.421057 -4.909208 -1.071316 -4.324227 -0.7439793 17.6475 1 416
1.367777 0.2732099 0.07189989 0.5178235 5.157166 2.340117 7.466621 -0.4266096 -1.369221 -1.018046 -1.17414 0.5038872 -1.336159 -0.5862402 1.188257 5.303027 -1.512101 1.683859 -1.543853 1.759277 -2.375379 -0.3758183 -1.143785 0.8613582 -1.632272 -1.737643 -1.682668 -1.78981 -0.08934922 -2.091092 1.507426 -3.347533 -0.5218536 -3.735636 -0.4555289 -2.365803 -0.5036277 -4.950327 -1.13699 -4.682161 -1.059873 14.64182 1 420
1.677751 0.4523553 0.01117138 0.7068449 5.204857 2.61354 7.514534 -0.3168086 -1.358657 -0.8249918 -1.417316 0.2976538 -1.559132 -0.6390731 1.306102 5.171904 -1.246622 1.546244 -1.517479 1.72283 -2.269214 -0.5022578 -1.090224 0.7960674 -1.427136 -1.481161 -1.80274 -1.894509 -0.2077463 -2.022228 1.679163 -3.338123 -0.5897301 -3.82941 -0.5002078 -2.354099 -0.5817761 -4.94685 -1.199188 -5.053032 -1.289171 14.55794 1 424
1.615966 0.6215206 -0.4192728 0.9091642 5.093249 2.609095 7.385536 -0.5103915 -1.304276 -0.8415657 -1.566555 -0.4544258 -1.669662 -0.6326781 1.319426 5.018506 -1.220476 1.368718 -2.024601 1.679906 -2.238796 -0.5734721 -1.145323 0.761874 -1.419539 -1.25576 -1.857693 -2.016461 -0.3251748 -2.054661 1.809254 -3.476698 -0.57924 -3.898124 -0.4978038 -2.257805 -0.59623 -4.975885 -1.234188 -5.152987 -1.107372 17.11497 1 428
1.414608 0.6655201 -0.8552606 0.9696072 4.948832 2.396736 7.13694 -0.7971082 -1.12403 -1.004294 -1.690007 -1.177233 -1.774514 -0.4542525 1.279059 4.912673 -1.354771 1.253818 -2.64923 1.352625 -2.214363 -0.5164976 -1.276513 0.7336779 -1.579637 -0.994721 -1.838523 -2.084625 -0.3804369 -2.128351 1.911469 -3.624497 -0.5269932 -3.969331 -0.4916718 -2.076138 -0.5695152 -5.03579 -1.291645 -5.08061 -0.4763856 20.06134 1 432
1.470037 0.6854922 -0.9445477 0.9646357 4.857977 2.195385 6.983994 -0.8736505 -0.7362257 -1.192273 -1.616097 -1.219275 -1.686859 -0.220919 1.225714 4.760097 -1.467417 1.1927 -2.924453 1.161111 -2.220072 -0.4680853 -1.495811 0.7364765 -1.860341 -0.6780085 -1.810515 -2.20241 -0.437897 -2.244381 2.024631 -3.722777 -0.5841721 -4.148942 -0.5914524 -1.975358 -0.6595103 -5.103701 -1.493259 -5.185695 0.2501598 21.25567 1 436
1.700639 0.8006033 -0.8843372 1.043926 4.756653 1.985768 6.997027 -0.7642271 -0.175656 -1.331091 -1.269288 -0.5008543 -1.321102 -0.09426565 1.19364 4.550389 -1.503423 1.16485 -2.594409 1.552387 -2.242466 -0.5296382 -1.691492 0.8130964 -1.91533 -0.3384487 -1.824836 -2.368713 -0.5802248 -2.230065 2.109508 -3.65515 -0.8636145 -4.381506 -0.8803274 -1.879589 -0.9734844 -5.159424 -1.906845 -5.61791 0.8289165 19.98019 1 440
1.815325 0.9351797 -0.9746565 1.167562 4.578337 1.677489 7.012156 -0.6357656 0.3986961 -1.419573 -0.7914009 0.4004687 -0.8119987 -0.04885741 1.19516 4.403545 -1.572905 1.176415 -2.032223 2.308694 -2.227845 -0.6201649 -1.838771 0.9281433 -1.745152 0.02618332 -1.892556 -2.485439 -0.7897764 -2.071306 2.09845 -3.483166 -1.295432 -4.533158 -1.301847 -1.648192 -1.408967 -5.24427 -2.410455 -6.183722 1.300164 18.04567 1 444
1.69639 0.971187 -1.125981 1.211091 4.387182 1.385063 6.903664 -0.6094037 0.8367537 -1.437011 -0.3804143 0.8907241 -0.3511623 0.03376963 1.21674 4.390621 -1.695439 1.214856 -1.834338 2.839674 -2.171254 -0.616914 -1.965101 1.017581 -1.791365 0.2984012 -1.92013 -2.526846 -0.9611142 -2.034747 1.996133 -3.478631 -1.651397 -4.56398 -1.671325 -1.458105 -1.752266 -5.414567 -2.792472 -6.568753 1.81685 17.66603 1 448
1.335425 0.8656381 -1.065976 1.101497 4.286129 1.26691 6.726026 -0.6499243 1.135881 -1.333825 -0.1798833 1.090806 -0.09393661 0.1953451 1.271152 4.461918 -1.750263 1.233667 -1.835785 2.917035 -2.07847 -0.5282939 -1.9672 1.04542 -1.974757 0.4226449 -1.85137 -2.484404 -1.067886 -2.026913 1.851372 -3.547565 -1.868091 -4.507315 -1.931751 -1.360992 -1.961514 -5.58496 -3.031241 -6.727452 2.378063 17.8248 1 452
1.019694 0.7108715 -0.7944555 0.9249939 4.287583 1.362133 6.633166 -0.5475107 1.286291 -1.104945 -0.2016095 1.364272 -0.06120534 0.3715096 1.364275 4.499835 -1.658902 1.220783 -1.584155 2.769579 -1.956262 -0.4807822 -1.789631 0.9711173 -1.818701 0.3344307 -1.769204 -2.362741 -1.211645 -1.754858 1.6177 -3.444737 -2.14362 -4.450707 -2.221559 -1.208339 -2.213892 -5.614145 -3.293171 -6.901492 2.634901 17.21518 1 456
1.198948 0.624016 -0.5569972 0.8239498 4.31558 1.59852 6.669163 -0.2633227 1.257978 -0.8625805 -0.230124 1.538427 -0.03636083 0.4478616 1.404488 4.409009 -1.472037 1.20383 -1.311787 2.566998 -1.83575 -0.5383281 -1.543969 0.7509642 -1.378504 -0.1026918 -1.729365 -2.211238 -1.449503 -1.372882 1.186676 -3.34314 -2.59974 -4.434299 -2.662737 -1.041587 -2.640558 -5.52429 -3.677671 -7.210358 2.40856 17.6249 1 460
1.745746 0.6363487 -0.4731859 0.8400812 4.297249 1.86345 6.711606 0.02461394 1.103244 -0.7324324 -0.09552912 1.341434 0.1401743 0.4233754 1.347034 4.235799 -1.320893 1.184697 -1.405116 2.2266 -1.741483 -0.5700733 -1.365568 0.4338932 -1.103175 -0.6438017 -1.672724 -2.043802 -1.652701 -1.211949 0.6697708 -3.459319 -3.057903 -4.382134 -3.111283 -0.9750378 -3.099243 -5.471441 -4.052246 -7.469978 1.960729 19.92507 1 464
2.101902 0.7507477 -0.4959761 0.9584537 4.247149 2.085644 6.683382 0.176949 0.910956 -0.6989307 0.04582718 0.9762907 0.2888491 0.4863868 1.317775 4.143953 -1.284129 1.207304 -1.647997 1.801266 -1.664033 -0.4118565 -1.29246 0.1617287 -1.067199 -0.9729298 -1.515409 -1.875352 -1.663081 -1.273999 0.2622032 -3.649279 -3.271218 -4.236414 -3.313496 -1.056205 -3.358466 -5.50674 -4.217299 -7.447864 1.696027 21.61755 1 468
2.059213 0.8374591 -0.603618 1.040771 4.189618 2.222408 6.569352 0.1027073 0.7384651 -0.7540346 0.03199849 0.5981321 0.2272756 0.7226516 1.367904 4.174183 -1.359088 1.318956 -1.928816 1.530857 -1.6072 -0.1238412 -1.34116 0.008704793 -1.18387 -1.279242 -1.253567 -1.777584 -1.510984 -1.414508 -0.02124453 -3.796055 -3.252406 -4.054897 -3.299658 -1.212087 -3.394094 -5.501103 -4.18771 -7.163228 1.845746 22.43361 1 472
1.890524 0.7888842 -0.7792301 0.9796018 4.091292 2.273875 6.365505 -0.0441116 0.5308118 -0.8890972 -0.06420622 0.1792669 0.04272529 0.9524022 1.432209 4.156241 -1.461709 1.450301 -2.463986 1.396207 -1.586274 0.064518 -1.510306 -0.1140457 -1.465116 -1.857709 -1.020264 -1.800189 -1.395589 -1.578452 -0.250403 -4.048572 -3.242546 -3.95984 -3.298416 -1.362906 -3.375938 -5.397904 -4.165439 -6.916581 2.015655 25.43894 1 476
1.975856 0.7443472 -0.8452219 0.9071671 4.003829 2.306684 6.146285 -0.03889595 0.3628397 -0.9937428 -0.1135087 -0.09557544 -0.07908164 1.023891 1.518221 4.005254 -1.450328 1.540316 -3.02451 1.337158 -1.594236 0.05140819 -1.700251 -0.2392753 -1.796645 -2.287091 -0.9829302 -1.902568 -1.447039 -1.735809 -0.3840583 -4.416655 -3.356567 -3.986149 -3.394684 -1.614875 -3.424666 -5.302542 -4.242002 -6.937568 1.898613 29.56458 1 480
2.466066 0.7696743 -0.5685806 0.883597 4.014663 2.369522 5.939384 0.07242367 0.3976436 -1.006937 -0.07627176 -0.03825127 -0.08837632 1.0186 1.665988 3.852509 -1.327163 1.606729 -3.181732 1.457383 -1.615274 -0.000224341 -1.843464 -0.2537231 -2.092508 -2.036204 -1.106918 -2.001349 -1.532845 -1.861005 -0.3206634 -4.616537 -3.492067 -4.004827 -3.496886 -1.917294 -3.495099 -5.247353 -4.308885 -7.041811 1.782563 30.27555 1 484
3.025175 0.7537766 -0.120274 0.8109389 4.051807 2.433853 5.681771 0.1823555 0.5122422 -0.992048 -0.1176123 0.262362 -0.1733065 1.088432 1.818718 3.776337 -1.275692 1.653988 -2.963625 1.619557 -1.605519 0.1121271 -1.969694 -0.1521835 -2.299327 -1.495869 -1.167591 -2.056603 -1.463196 -1.906987 -0.1351324 -4.501663 -3.490916 -3.916235 -3.463392 -2.041487 -3.45229 -5.167719 -4.235795 -6.900803 1.828301 27.45327 1 488
3.100612 0.6623982 0.01685528 0.6926174 3.981506 2.433874 5.372331 0.1019297 0.5731414 -1.030873 -0.3579353 0.5187571 -0.4121685 1.223683 1.850382 3.69759 -1.381467 1.672982 -2.696178 1.704966 -1.556486 0.3358757 -2.072552 -0.004033479 -2.306164 -1.167386 -1.077342 -2.070071 -1.26625 -1.816612 0.01627961 -4.243893 -3.298153 -3.785713 -3.274764 -1.978812 -3.247137 -5.069995 -4.03711 -6.572539 2.116009 24.65182 1 492
2.865692 0.5325581 -0.1864474 0.5803829 3.824586 2.416 5.137032 -0.2225434 0.6066792 -1.017353 -0.573317 0.7016972 -0.5679047 1.315577 1.80015 3.560916 -1.478635 1.68346 -2.461439 1.879356 -1.537968 0.4751678 -2.116466 0.1844038 -2.158884 -1.02164 -0.9595168 -2.084538 -1.076917 -1.693143 0.1197774 -4.048521 -3.062603 -3.720379 -3.079511 -1.929895 -3.015462 -5.000782 -3.840644 -6.408579 2.557602 23.02203 1 496
3.189204 0.447904 -0.2544225 0.5161201 3.757829 2.580517 5.129767 -0.2679829 0.5594897 -0.7229421 -0.6876404 1.062181 -0.6409549 1.357862 1.867779 3.40761 -1.352248 1.693444 -2.081816 2.001415 -1.564552 0.4681753 -2.070982 0.286501 -1.958192 -1.131308 -0.907348 -2.138117 -0.9987922 -1.701774 0.1361952 -3.975896 -2.985699 -3.775971 -3.014619 -2.076467 -2.939123 -4.935098 -3.759995 -6.518415 2.554048 21.44426 1 500
4.282974 0.4767679 0.0202997 0.5316141 3.841552 2.929121 5.278465 0.2868323 0.3983666 -0.2407546 -0.8689375 1.462108 -0.8369914 1.430423 2.083174 3.272025 -1.039047 1.660865 -1.644383 1.677383 -1.562671 0.4052824 -1.915433 0.137655 -1.699914 -1.591636 -0.8868627 -2.161673 -1.043997 -1.782598 -0.0931057 -3.975528 -3.14389 -3.866545 -3.123618 -2.313637 -3.094844 -4.820499 -3.849146 -6.640356 1.895447 20.12576 1 504
5.368153 0.5110529 0.3717746 0.5319149 3.924727 3.13642 5.333495 0.9181425 0.1971524 0.05363191 -1.0088 1.495558 -1.007242 1.574462 2.29282 3.153824 -0.8011367 1.586154 -1.520017 1.011634 -1.492736 0.4139595 -1.72877 -0.1564757 -1.564374 -2.041783 -0.804715 -2.084466 -1.068844 -1.876924 -0.5059557 -4.032293 -3.399671 -3.797386 -3.307189 -2.445566 -3.349293 -4.685403 -3.994606 -6.493349 1.209103 20.08299 1 508
5.726267 0.4346481 0.5883356 0.4235306 3.908884 3.047227 5.196402 1.203701 -0.04297521 0.04995246 -0.9818016 1.197892 -0.9840065 1.748273 2.431536 3.06289 -0.7631845 1.497602 -1.756534 0.3986708 -1.400379 0.4966754 -1.544351 -0.4197319 -1.643508 -2.371749 -0.6367473 -1.925753 -1.013391 -1.999588 -0.8733017 -4.16818 -3.554722 -3.578209 -3.410401 -2.498747 -3.503703 -4.591595 -4.032282 -6.098975 0.8607037 21.52058 1 512
5.221344 0.3632045 0.5807755 0.3326353 3.815404 2.781312 4.939919 1.259976 -0.2919787 -0.1312692 -0.9232616 0.7995729 -0.9160506 1.843723 2.507996 2.957676 -0.8315439 1.338889 -2.083963 -0.124423 -1.346818 0.4926176 -1.296308 -0.6568919 -1.578696 -2.789957 -0.4945883 -1.736583 -1.027224 -1.974874 -1.091651 -4.292131 -3.583846 -3.451376 -3.420427 -2.475297 -3.543032 -4.49583 -3.981065 -5.745079 0.6392814 24.40989 1 516
4.180745 0.4037689 0.2556921 0.3730678 3.678348 2.423998 4.652018 1.179513 -0.4163556 -0.4552169 -0.914251 0.2960356 -0.9298509 1.807591 2.518231 2.776888 -0.92111 1.094843 -2.478037 -0.5833452 -1.349681 0.3269949 -1.051371 -0.8802381 -1.305148 -3.047571 -0.4843352 -1.613066 -1.172904 -1.779495 -1.140112 -4.382386 -3.54606 -3.51035 -3.400163 -2.356392 -3.517355 -4.352673 -3.902985 -5.648002 0.4933699 28.67737 1 520
3.233425 0.4271889 -0.1232339 0.4050353 3.579765 2.133065 4.394987 0.9983788 -0.4495529 -0.8223985 -0.9110396 -0.04263134 -0.9694657 1.740567 2.542389 2.635981 -1.015263 0.9100605 -2.900826 -0.8061504 -1.404028 0.1537961 -0.9167526 -1.02114 -1.263889 -3.047193 -0.589489 -1.6169 -1.311727 -1.663189 -1.125889 -4.511557 -3.454589 -3.61895 -3.332544 -2.244322 -3.406861 -4.278708 -3.794675 -5.734648 0.5039788 32.71907 1 524
2.783042 0.3639967 -0.137133 0.3364849 3.642722 2.09188 4.234298 0.7826107 -0.462732 -1.028437 -0.9012166 0.2189174 -0.9753847 1.755686 2.637744 2.74834 -1.12665 0.9447271 -3.035899 -0.8743812 -1.482414 0.1464705 -0.8754511 -1.019737 -1.629269 -3.021191 -0.7262129 -1.687528 -1.303114 -1.760058 -1.113425 -4.629711 -3.281809 -3.690517 -3.166019 -2.226602 -3.203843 -4.409247 -3.671696 -5.822951 0.7188146 33.85696 1 528
2.758759 0.2835698 0.1561027 0.2304402 3.865602 2.175172 4.247236 0.4628015 -0.3699559 -1.0931 -0.8179085 0.6905609 -0.8938833 1.785339 2.684303 3.091663 -1.304081 1.173938 -2.978192 -0.8880732 -1.576029 0.2521484 -0.9097706 -0.873095 -2.109571 -2.948639 -0.8492216 -1.782286 -1.194395 -2.015618 -0.9964378 -4.783331 -3.092681 -3.790205 -3.004563 -2.401684 -3.014239 -4.727256 -3.617044 -5.919597 1.214672 32.87855 1 532
3.001822 0.2144484 0.3317224 0.1333484 4.068339 2.048341 4.489804 -0.06270617 -0.1235414 -1.263083 -0.5068995 0.5342808 -0.5883468 1.627912 2.546197 3.391744 -1.570781 1.432319 -3.182549 -0.5220281 -1.725689 0.261262 -1.036877 -0.6068466 -2.349004 -2.636221 -0.9970875 -1.933645 -1.158683 -2.219239 -0.7428389 -5.063298 -3.011155 -4.009574 -2.987097 -2.744421 -2.964557 -5.106388 -3.697981 -6.205975 1.888013 33.0471 1 536
3.293269 0.2124368 0.1431054 0.1314822 4.145494 1.630116 4.891964 -0.6275067 0.1397724 -1.541985 -0.05132114 -0.1636565 -0.1214669 1.287695 2.302613 3.490333 -1.811384 1.654135 -3.594815 0.1450825 -1.887184 0.1525044 -1.196228 -0.246241 -2.332669 -2.055869 -1.160343 -2.098398 -1.213806 -2.24392 -0.3957784 -5.308905 -3.010327 -4.281415 -3.04625 -2.999084 -3.022973 -5.388755 -3.829106 -6.671942 2.394109 34.2872 1 540
3.319613 0.3058348 -0.2249959 0.2594361 4.176328 1.336034 5.212417 -0.9883035 0.1587104 -1.737463 0.2788644 -0.7748716 0.2206387 1.029311 2.106176 3.501101 -1.972935 1.873721 -3.945114 0.3854376 -1.98342 0.1305175 -1.328427 0.1448812 -2.320711 -1.630259 -1.239159 -2.189818 -1.193491 -2.226082 -0.06099428 -5.416107 -3.026808 -4.42913 -3.091664 -3.03193 -3.090421 -5.495914 -3.899935 -7.016258 2.479439 35.39569 1 544
3.116599 0.4736812 -0.5318033 0.4652471 4.181859 1.528183 5.294948 -1.254334 -0.0420576 -1.906779 0.3914973 -1.295646 0.3239088 0.9387278 1.899406 3.547315 -2.246837 2.0844 -4.354142 0.01876178 -2.07465 0.2718015 -1.511118 0.519854 -2.47469 -1.479185 -1.235682 -2.245572 -1.002719 -2.292153 0.1758618 -5.501297 -3.01392 -4.454895 -3.080818 -2.967091 -3.078247 -5.537037 -3.898897 -7.03712 2.405771 36.87883 1 548
2.988437 0.7241901 -0.7718538 0.7336726 4.119288 1.946365 5.23855 -1.604081 -0.08172109 -2.092856 0.3822509 -1.764841 0.3014822 0.8745764 1.598548 3.601219 -2.662051 2.273035 -4.77228 -0.3737234 -2.198607 0.4485126 -1.787024 0.8854912 -2.757739 -1.148739 -1.257878 -2.342187 -0.7193428 -2.438168 0.4215957 -5.578704 -2.859439 -4.516383 -2.942002 -2.960906 -2.919569 -5.639783 -3.819692 -6.847355 2.638881 37.68086 1 552
2.959631 0.9394112 -0.9444602 0.9531046 4.037355 2.172769 5.197869 -2.025071 0.1880739 -2.161438 0.4178199 -2.007579 0.341212 0.7575104 1.279217 3.575771 -2.948167 2.457287 -4.876615 -0.2487081 -2.29441 0.5150132 -2.054066 1.263385 -2.951982 -0.5088749 -1.353755 -2.456351 -0.4765997 -2.583801 0.8341387 -5.502213 -2.529474 -4.643898 -2.689178 -3.010103 -2.647112 -5.720432 -3.640567 -6.70979 3.24676 35.84833 1 556
2.959392 0.9389282 -1.023945 0.9567984 3.952042 2.045249 5.184685 -2.393704 0.5293311 -2.129816 0.5299407 -2.144702 0.4884759 0.5682387 0.9769381 3.423289 -2.99305 2.623202 -4.620869 0.4345587 -2.364342 0.4218595 -2.192486 1.687203 -2.826784 0.2977768 -1.47891 -2.525234 -0.3363797 -2.572469 1.419593 -5.160891 -2.139181 -4.674585 -2.382799 -2.943172 -2.328633 -5.588817 -3.377772 -6.7184 3.815642 31.6638 1 560
3.002804 0.7029693 -1.062291 0.7338501 3.782344 1.471558 5.063414 -2.515211 0.7965912 -2.023282 0.5776361 -2.043463 0.5744056 0.3310258 0.6398121 3.213913 -2.943032 2.719047 -4.009662 1.257787 -2.445178 0.2840314 -2.09043 2.115221 -2.371322 1.053115 -1.534887 -2.523988 -0.2405863 -2.290581 1.988618 -4.544378 -1.831307 -4.452808 -2.089162 -2.617239 -2.020651 -5.206028 -3.100914 -6.65592 3.971555 26.33268 1 564
2.963886 0.3332835 -1.061887 0.3838805 3.543933 0.6694632 4.786949 -2.338374 1.104778 -1.73747 0.4550065 -1.45323 0.4549693 0.1561048 0.2673269 3.092915 -2.937627 2.728593 -3.102136 1.666938 -2.556976 0.2455598 -1.766599 2.394943 -1.827665 1.490163 -1.489225 -2.480542 -0.1246242 -1.890947 2.386073 -3.817021 -1.586382 -4.069162 -1.849696 -2.134423 -1.732138 -4.764163 -2.836855 -6.334352 3.910696 20.85616 1 568
2.844937 0.0269869 -0.9313278 0.08340485 3.390903 0.225627 4.555746 -1.982179 1.5093 -1.350091 0.2607842 -0.6625102 0.2646467 0.07664208 -0.0750139 3.046277 -3.004444 2.63633 -2.331592 1.390875 -2.719666 0.2194806 -1.502503 2.418208 -1.526809 1.645657 -1.482328 -2.469876 -0.09306126 -1.705004 2.598173 -3.330366 -1.309952 -3.828256 -1.632239 -1.827634 -1.464547 -4.500376 -2.582829 -5.92498 3.895895 17.14764 1 572
2.751509 -0.00583666 -0.8069386 0.03371091 3.330139 0.25935 4.537715 -1.670246 1.91962 -1.224959 0.311169 -0.2557932 0.3464968 -0.05760275 -0.3623447 2.851608 -3.124031 2.416692 -2.21718 0.896791 -2.90311 0.006034689 -1.621153 2.28221 -1.597338 1.761789 -1.628775 -2.593714 -0.2628134 -1.853168 2.63 -3.32908 -1.075578 -3.896302 -1.463503 -1.89881 -1.312879 -4.420844 -2.419925 -5.724298 3.863974 17.52741 1 576
2.676128 0.1740032 -0.9251502 0.1946597 3.230758 0.3536009 4.624636 -1.505558 2.21728 -1.513594 0.6621903 -0.4234734 0.7069985 -0.3123184 -0.5982308 2.448445 -3.263729 2.171593 -2.820815 0.8338163 -3.034981 -0.3354082 -2.157666 2.155991 -1.966961 1.85756 -1.822796 -2.868979 -0.5199794 -2.19988 2.541896 -3.715127 -1.014161 -4.099524 -1.435099 -2.198494 -1.332671 -4.35271 -2.390994 -5.752437 3.69834 22.01281 1 580
2.607198 0.269895 -1.113187 0.2788476 3.117345 0.3847114 4.630308 -1.397283 2.351115 -1.923342 0.9931223 -0.7694287 1.001285 -0.5063419 -0.7193723 2.086166 -3.397588 2.059272 -3.696289 1.160213 -3.087636 -0.542478 -2.838314 2.071038 -2.560043 1.709712 -1.900864 -3.145226 -0.6782698 -2.642428 2.395446 -4.219348 -1.076073 -4.200425 -1.525148 -2.494983 -1.423003 -4.258011 -2.412798 -5.768315 3.514739 27.66573 1 584
2.483652 0.2031424 -1.078138 0.188403 3.051494 0.4757978 4.557851 -1.365299 2.400678 -2.214396 1.172797 -1.122972 1.143294 -0.5344545 -0.6914488 1.941797 -3.531865 2.107633 -4.500097 1.532598 -3.086155 -0.501094 -3.398498 2.038091 -3.253017 1.37157 -1.836848 -3.291325 -0.6869378 -3.154506 2.203226 -4.672326 -1.11205 -4.194839 -1.588789 -2.725807 -1.461931 -4.246273 -2.419822 -5.601764 3.568364 31.83027 1 588
2.383531 0.2186434 -0.7375937 0.154854 3.03384 0.6223278 4.572501 -1.323506 2.463287 -2.262396 1.395212 -1.414743 1.370941 -0.5126743 -0.5861288 1.938835 -3.592422 2.245204 -4.946455 1.916343 -3.046245 -0.3387126 -3.721618 2.089257 -3.771947 1.218009 -1.759388 -3.332609 -0.6248765 -3.58716 2.025923 -4.961361 -1.164348 -4.214862 -1.616721 -2.95787 -1.521348 -4.360781 -2.469932 -5.395477 3.68259 32.88997 1 592
2.373371 0.4512259 -0.2025161 0.3301367 3.117046 0.8038099 4.784376 -1.079211 2.547164 -1.964551 1.747784 -1.311054 1.747 -0.5061759 -0.4439435 1.958463 -3.40763 2.397231 -4.705593 2.298524 -2.961697 -0.2433727 -3.742316 2.168823 -3.887839 1.53029 -1.767338 -3.301852 -0.6007088 -3.792043 1.962106 -4.994271 -1.315398 -4.30324 -1.696105 -3.255776 -1.677925 -4.511768 -2.576359 -5.409088 3.538943 29.90149 1 596
2.223665 0.6838142 0.2205036 0.530991 3.274734 0.9998916 5.046649 -0.6667206 2.549732 -1.449712 1.903608 -0.7379988 1.886987 -0.4651239 -0.2314206 1.965623 -2.928029 2.502414 -3.968609 2.271958 -2.783695 -0.2463611 -3.507383 2.165294 -3.703829 2.07316 -1.769513 -3.165405 -0.6297264 -3.856894 1.994168 -4.880957 -1.437334 -4.344986 -1.775651 -3.592484 -1.763281 -4.554546 -2.603345 -5.604213 3.162686 25.21128 1 600
1.92897 0.7059845 0.4086765 0.5611159 3.363976 1.206302 5.082966 -0.2112336 2.35268 -0.9234651 1.665961 0.0946266 1.602884 -0.3811792 0.01382195 1.968924 -2.351743 2.53135 -3.250273 1.710236 -2.518929 -0.2302375 -3.159731 1.998938 -3.498338 2.052437 -1.682586 -2.952905 -0.6606053 -3.905208 1.896451 -4.830687 -1.519536 -4.241706 -1.86321 -3.842525 -1.743808 -4.464371 -2.557067 -5.719723 2.606042 22.75666 1 604
1.740752 0.6843386 0.4460232 0.568016 3.319435 1.432293 4.886086 0.01340324 2.005248 -0.6510333 1.347056 0.4912509 1.24834 -0.2813179 0.1901513 1.982773 -1.953206 2.529516 -3.058936 1.150266 -2.28711 -0.09107535 -2.850103 1.755564 -3.450178 1.301434 -1.53723 -2.781545 -0.6395119 -3.964824 1.534065 -4.94086 -1.686655 -4.072515 -2.02065 -3.9275 -1.801614 -4.368069 -2.594512 -5.61455 2.10208 23.84494 1 608
1.717915 0.8322538 0.352265 0.7339086 3.19266 1.592213 4.671594 -0.256175 1.724005 -0.8768651 1.191163 -0.2091539 1.080322 -0.1995982 0.2240897 1.986082 -1.858261 2.546332 -3.68799 0.9676544 -2.15908 0.124624 -2.781091 1.623508 -3.658644 0.650876 -1.391693 -2.72559 -0.5583417 -4.08887 1.132813 -5.181997 -1.841549 -3.960837 -2.122979 -3.924812 -1.905792 -4.2762 -2.695952 -5.316814 2.074961 27.25911 1 612
1.902772 1.080342 0.3407688 0.9628745 3.071857 1.660813 4.559019 -0.7263532 1.672378 -1.345093 1.2395 -1.392877 1.149764 -0.1963305 0.1247867 1.89403 -1.95415 2.571045 -4.536652 1.240483 -2.1219 0.219018 -2.995095 1.664649 -3.937473 0.6195914 -1.369081 -2.760824 -0.5107146 -4.218488 0.9856992 -5.286946 -1.864343 -3.959266 -2.073625 -3.879291 -1.93943 -4.045696 -2.739663 -4.970793 2.401438 29.46312 1 616
2.230715 1.252549 0.6320475 1.083169 3.013184 1.713327 4.552824 -0.8923274 1.823386 -1.556423 1.405983 -1.924394 1.342074 -0.2580064 0.03886318 1.726067 -1.971403 2.618924 -4.625803 1.826613 -2.103957 0.1154248 -3.183301 1.793645 -3.840478 0.8929159 -1.518677 -2.792098 -0.5562482 -4.172756 1.069754 -4.997808 -1.809992 -4.012897 -1.961214 -3.765349 -1.931057 -3.692583 -2.687773 -4.726412 2.596006 27.25343 1 620
2.389452 1.265911 1.018981 1.054899 2.981133 1.691967 4.575797 -0.6850239 1.999994 -1.462759 1.469963 -1.596459 1.386473 -0.2676838 0.05816208 1.678809 -1.83287 2.740201 -3.958591 2.23752 -2.01564 -0.006449743 -3.089636 1.886881 -3.36833 0.8746292 -1.684244 -2.729479 -0.6235051 -3.99236 1.101872 -4.522802 -1.759086 -3.97991 -1.898797 -3.664949 -1.923048 -3.378767 -2.565553 -4.517881 2.53103 22.58006 1 624
2.346613 1.219701 1.246855 1.001197 2.916539 1.474383 4.523348 -0.3061663 2.044297 -1.346457 1.424402 -0.852177 1.296989 -0.1824791 0.0700619 1.807531 -1.732613 2.883199 -3.18654 2.13706 -1.888218 0.002294237 -2.79956 1.875727 -2.946869 0.3634081 -1.724854 -2.599269 -0.6427078 -3.906563 0.9478267 -4.186243 -1.726261 -3.864788 -1.882118 -3.627031 -1.898312 -3.170663 -2.416382 -4.147349 2.290791 19.16141 1 628
2.380991 1.205458 1.300009 1.000325 2.801444 1.146937 4.360956 0.06996903 1.952112 -1.245677 1.337414 -0.05884335 1.184962 -0.10206 -0.01170375 1.893561 -1.715576 2.884373 -2.547816 1.565439 -1.80013 0.07170105 -2.431884 1.781522 -2.677976 -0.2451222 -1.679963 -2.465068 -0.6300735 -3.924387 0.7867302 -3.946279 -1.640715 -3.775857 -1.801168 -3.535085 -1.788582 -3.003468 -2.232939 -3.611576 1.898086 17.24983 1 632
2.570659 1.198962 1.155747 1.015864 2.605115 0.8960561 4.08028 0.2190324 1.821739 -1.097499 1.220839 0.2950637 1.067134 -0.1809225 -0.1393902 1.706203 -1.668034 2.675805 -2.14235 1.027954 -1.770045 0.01769997 -2.082589 1.702767 -2.387976 -0.3805844 -1.672528 -2.336627 -0.6522522 -3.818925 0.8433036 -3.657773 -1.497237 -3.712897 -1.654668 -3.282936 -1.603506 -2.777149 -2.020874 -3.144241 1.475622 16.08513 1 636
2.772437 1.191393 0.8490389 1.028281 2.330126 0.8053728 3.730853 0.1422282 1.749879 -1.065304 1.23172 0.1087549 1.096421 -0.5194823 -0.269161 1.222904 -1.639449 2.332641 -2.109782 1.0284 -1.855593 -0.2562214 -1.958184 1.687367 -2.113497 0.0259353 -1.779021 -2.304686 -0.7565184 -3.555412 1.147629 -3.403627 -1.346063 -3.681815 -1.519003 -2.968547 -1.424673 -2.547814 -1.826321 -2.96924 1.07892 16.30918 1 640
2.905302 1.175986 0.619957 1.016115 2.093708 0.9025238 3.480939 0.14298 1.738042 -1.234755 1.393435 -0.02514622 1.279052 -0.9818502 -0.342566 0.7112408 -1.724834 2.010807 -2.316981 1.222321 -2.062745 -0.5558785 -2.150357 1.67959 -2.134051 0.4502906 -1.937754 -2.454809 -0.8513079 -3.397047 1.524977 -3.334106 -1.132054 -3.693496 -1.348819 -2.800148 -1.245938 -2.465293 -1.628138 -2.995677 0.6380941 17.82843 1 644
2.947128 1.160802 0.6352689 0.9847237 1.988968 1.059023 3.411627 0.1973325 1.72545 -1.530338 1.489349 -0.2158467 1.385309 -1.279603 -0.3099645 0.5013618 -1.884864 1.924988 -2.78248 1.13822 -2.238595 -0.5880328 -2.549551 1.708544 -2.590641 0.6382726 -1.97209 -2.682291 -0.752937 -3.462177 1.805079 -3.416895 -0.9125679 -3.667668 -1.160577 -2.726654 -1.104447 -2.516569 -1.442038 -2.891758 0.3455497 19.63161 1 648
2.853189 1.148011 0.8228617 0.9423431 1.928751 1.006979 3.41267 0.1359968 1.656759 -1.846945 1.477381 -0.9213717 1.383738 -1.334183 -0.2556615 0.5515085 -2.006693 2.132173 -3.50743 1.007606 -2.270957 -0.3560431 -2.961761 1.869129 -3.17378 0.7693893 -1.819636 -2.860079 -0.4343936 -3.579154 1.984883 -3.524391 -0.8609045 -3.601572 -1.069314 -2.595771 -1.073361 -2.624716 -1.336375 -2.579625 0.279308 21.23152 1 652
2.511171 1.130418 0.9469726 0.8884554 1.766204 0.6457922 3.356465 -0.03720707 1.586907 -2.082894 1.557252 -1.6924 1.478408 -1.344933 -0.3249781 0.5168127 -2.031448 2.437879 -4.083588 1.219149 -2.199617 -0.1113246 -3.256577 2.15713 -3.497181 1.05644 -1.607991 -3.003814 -0.06368093 -3.661831 2.188104 -3.638935 -0.861089 -3.606051 -0.9967958 -2.605565 -1.009647 -2.756692 -1.24402 -2.343018 0.3280032 22.2897 1 656
1.907406 1.188386 0.7941589 0.9283634 1.458104 0.1993394 3.191982 -0.3030343 1.651916 -2.223771 1.819717 -2.012964 1.775838 -1.501686 -0.5426182 0.2573507 -2.021164 2.599564 -4.291677 1.735025 -2.139253 -0.05310413 -3.429877 2.456086 -3.517112 1.50882 -1.462822 -3.164232 0.1837169 -3.772524 2.434651 -3.835261 -0.726478 -3.693444 -0.8438286 -2.959301 -0.8118891 -2.884978 -1.102724 -2.39085 0.4946687 23.09957 1 660
1.259834 1.373478 0.3718899 1.140357 1.070626 -0.04800536 2.934419 -0.5343414 1.843252 -2.327924 2.119478 -1.931689 2.133676 -1.761276 -0.7991188 -0.05089363 -2.088561 2.556722 -4.266685 2.224554 -2.174098 -0.1524005 -3.471027 2.652963 -3.40238 1.90519 -1.408057 -3.28261 0.2694926 -3.875324 2.597343 -4.057233 -0.5442817 -3.737422 -0.7034762 -3.384432 -0.6291755 -3.018591 -0.9674715 -2.553761 0.6656294 24.05139 1 664
1.884411 1.131354 0.1706046 0.3431453 -1.926673 -1.864225 1.240074 2.671001 1.39604 -0.5239208 1.443595 -0.476525 1.287628 -2.019183 -2.662907 -1.049757 -3.854486 -1.949111 -0.5156322 1.480305 -0.6727393 -2.718117 1.802344 0.2964984 1.807211 0.3412831 -3.378894 0.8785238 -1.996391 1.907016 -2.608538 1.769962 0.662847 1.951474 -0.9543452 1.870396 -0.04735461 1.94683 2.522103 1.405451 -0.8193117 -2.172035 2 -168
1.978483 1.149091 0.2956435 0.6032935 -1.872671 -1.591904 1.183967 3.129333 1.547213 0.009096243 1.562211 0.03826515 1.460399 -2.197795 -2.669715 -0.9357622 -3.81534 -1.898204 0.003063752 1.648126 -1.47631 -2.874591 1.723204 0.357062 1.714468 0.3418407 -3.932541 0.2758816 -2.031171 1.757588 -2.143668 1.731235 0.7311623 1.829443 -1.146735 1.788545 -0.1837933 1.835375 2.335763 1.313971 -0.9523254 -2.621165 2 -164
2.005877 1.075086 0.09313153 0.6404473 -1.992444 -1.54249 0.5800875 3.536981 1.623518 0.4970807 1.630978 0.5175049 1.549679 -2.295898 -2.720591 -0.9021542 -3.569313 -1.897406 0.5036935 1.71319 -2.096671 -2.943861 1.771152 0.5171627 1.758482 0.4648487 -4.502069 -0.3450457 -2.026721 1.742626 -1.703674 1.793255 0.8145583 1.810403 -1.321476 1.791433 -0.2412745 1.794345 2.229459 1.172096 -0.7871544 -2.738796 2 -160
1.90053 0.8874996 -0.3238274 0.4448296 -2.14292 -1.698657 -0.04222168 3.688581 1.60111 0.9080635 1.615192 0.897102 1.503281 -2.249597 -2.779958 -0.8950964 -3.304262 -1.633156 0.9447641 1.626473 -2.407498 -2.692188 1.607237 0.9407218 1.613529 0.8453918 -4.737881 -0.9185458 -1.84308 1.559612 -1.124595 1.607564 0.9703202 1.606523 -1.300874 1.578629 -0.04471909 1.539279 2.311299 0.9052366 -0.1823515 -2.781853 2 -156
1.658531 0.6736186 -0.8970752 0.1972128 -2.293247 -2.042182 -0.4547416 3.546692 1.466358 1.145537 1.468214 1.102924 1.320262 -2.244481 -2.921907 -0.9762233 -3.16015 -1.17206 1.187925 1.437749 -2.480883 -2.236902 1.376751 1.52126 1.38867 1.389185 -4.54949 -1.337419 -1.469213 1.330309 -0.4057336 1.357566 1.23283 1.348752 -1.056869 1.329569 0.3524866 1.251504 2.60217 0.6904704 0.139786 -2.817542 2 -152
1.415331 0.6418164 -1.456596 -0.0003414154 -2.488341 -2.356014 -0.667868 3.324393 1.32742 1.134468 1.304601 1.110342 1.16129 -2.409786 -3.140307 -1.183657 -2.989884 -0.8186308 1.174839 1.313032 -2.39068 -1.846773 1.219855 2.016336 1.179661 1.879313 -4.151178 -1.532066 -0.9894173 1.139965 0.2287811 1.170205 1.568345 1.139404 -0.7549007 1.161736 0.8325033 1.050776 3.028648 0.5929362 -0.3134373 -2.626136 2 -148
1.16952 0.6902422 -1.857053 -0.3404543 -2.772543 -2.52285 -0.8027918 2.962883 1.25448 0.9238134 1.23284 0.9427478 1.108897 -2.640557 -3.303707 -1.424787 -2.593236 -0.6457377 0.9656382 1.290089 -2.093378 -1.503209 1.017842 2.312126 0.8948655 2.206573 -3.687768 -1.496976 -0.4320525 0.8656036 0.8303227 0.9081259 1.991136 0.8883917 -0.435545 0.9456164 1.456737 0.8111162 3.556111 0.5380655 -0.8563793 -2.354385 2 -144
0.8328252 0.4498386 -2.045746 -0.853907 -3.107534 -2.72881 -0.9829479 2.380154 1.327153 0.6319266 1.301888 0.6673516 1.210621 -2.77031 -3.311006 -1.654729 -2.011823 -0.5828841 0.6447707 1.420321 -1.497434 -1.036228 0.7713464 2.412468 0.5816858 2.365611 -3.094566 -1.268108 0.1710148 0.5643368 1.481485 0.6111788 2.378745 0.6160085 -0.0276887 0.706167 2.044878 0.5440291 3.957537 0.4395201 -0.9107131 -2.627912 2 -140
0.4728121 -0.1362515 -1.97323 -1.320976 -3.389295 -3.024054 -1.24462 1.893444 1.47869 0.2362413 1.404652 0.2701125 1.386732 -2.704958 -3.184652 -1.959356 -1.429617 -0.6418121 0.1978018 1.656868 -0.6018147 -0.410893 0.5913953 2.373872 0.3642396 2.365908 -2.285685 -0.9230511 0.7393049 0.3858478 1.980936 0.3976501 2.520643 0.4301924 0.4291927 0.5461329 2.293818 0.3798916 3.981496 0.3787889 -0.5211675 -3.404368 2 -136
0.1691539 -0.7414455 -1.670413 -1.518655 -3.488055 -3.198482 -1.430427 1.582404 1.419225 -0.3465778 1.314183 -0.2949928 1.36277 -2.451179 -2.969944 -2.237703 -0.9242075 -0.8120588 -0.4058276 1.71261 0.4490551 0.2387737 0.4847835 2.244083 0.264522 2.229735 -1.332833 -0.5064113 1.199325 0.3232702 2.219479 0.2677757 2.452445 0.3445129 0.7861804 0.4531264 2.283839 0.335824 3.806628 0.4766506 0.04321133 -4.134747 2 -132
-0.1136941 -1.150276 -1.306934 -1.440189 -3.316008 -3.151324 -1.266246 1.137524 0.9731607 -1.039008 0.9162205 -0.9598653 0.94231 -2.035904 -2.681969 -2.178988 -0.3936234 -0.9749587 -1.080979 1.316944 1.480079 0.6964654 0.4461509 1.97231 0.2679208 1.920224 -0.4260482 -0.002829595 1.463556 0.3316126 2.22592 0.2442022 2.33167 0.3311352 0.9277584 0.4312703 2.250519 0.3628128 3.761306 0.6201373 0.6411992 -4.473704 2 -128
-0.3333985 -1.387275 -1.098954 -1.312553 -2.980112 -2.963993 -0.9279776 0.6329393 0.1985164 -1.627697 0.1974484 -1.551157 0.1440453 -1.4136 -2.332518 -1.748193 0.302716 -1.026012 -1.652526 0.4449456 2.400767 0.9069505 0.4453242 1.517543 0.3002276 1.413959 0.3145609 0.5719996 1.473621 0.330819 2.032957 0.273757 2.129483 0.32906 0.8698235 0.4384364 2.210597 0.3979967 3.781461 0.6373991 1.547623 -3.888743 2 -124
-0.454803 -1.414075 -1.179171 -1.275457 -2.655005 -2.723387 -0.813853 0.2413334 -0.6035355 -1.906806 -0.6306047 -1.851763 -0.7225985 -0.5972084 -1.897914 -1.227169 1.114683 -0.9380326 -1.919533 -0.5168182 3.191496 1.036548 0.349133 1.004637 0.2188679 0.8842185 0.8846583 1.166754 1.299515 0.173626 1.700673 0.1827233 1.691273 0.2263433 0.6733429 0.3295606 1.979551 0.3215667 3.514142 0.439634 2.829385 -2.125692 2 -120
-0.6023999 -1.183848 -1.473907 -1.259918 -2.360613 -2.415636 -0.8270504 -0.2721691 -1.133723 -1.88971 -1.207306 -1.840488 -1.317311 0.2383242 -1.34498 -0.8077108 1.799675 -0.7013715 -1.874755 -1.135154 3.828513 1.203129 0.1489098 0.5863571 0.04499808 0.5050153 1.34141 1.701488 1.04824 -0.09761412 1.226472 -0.01386268 1.027044 0.05808878 0.3799622 0.1199106 1.455661 0.1293228 2.885396 0.1203938 4.159302 -0.2475851 2 -116
-0.8006394 -0.8546408 -1.681524 -1.156896 -2.022878 -1.971708 -0.6786518 -0.8983704 -1.374679 -1.886032 -1.426623 -1.830742 -1.575282 0.9150789 -0.7091411 -0.4574827 2.20378 -0.3774938 -1.869651 -1.357575 4.254454 1.371878 -0.0323756 0.32956 -0.1042357 0.2922551 1.752667 2.040406 0.7921752 -0.3009389 0.6301952 -0.1776977 0.3506828 -0.06840389 0.08428288 -0.07385382 0.7787421 -0.06702176 2.174217 -0.08001649 5.282676 0.5817831 2 -112
-1.025179 -0.6132302 -1.685128 -0.991827 -1.621983 -1.447927 -0.4060298 -1.29847 -1.439648 -2.014991 -1.43866 -1.965888 -1.593174 1.406856 -0.09411201 -0.09278667 2.415267 -0.1245669 -2.05419 -1.349066 4.454707 1.474921 -0.2734979 0.2233478 -0.340464 0.1996842 2.091872 2.114402 0.6360195 -0.4854928 0.1559437 -0.3884189 -0.1296278 -0.2437495 -0.06439871 -0.3373038 0.2402596 -0.3249978 1.63713 -0.1366974 5.968647 0.9633527 2 -108
-1.320528 -0.5432034 -1.663685 -0.9053068 -1.240976 -1.043713 -0.227047 -1.280688 -1.488889 -2.009525 -1.450176 -1.973592 -1.56209 1.789763 0.4104683 0.2245322 2.570438 -0.03841851 -2.081304 -1.342505 4.519872 1.464668 -0.6039225 0.145453 -0.677686 0.1026133 2.26587 2.019115 0.6303751 -0.7023035 0.03403429 -0.6598836 -0.3267852 -0.490473 0.01176072 -0.6628763 0.07187457 -0.6399477 1.353267 -0.1718176 6.030203 1.463086 2 -104
-1.571594 -0.6581048 -1.668324 -0.9176111 -0.9515308 -0.9180804 -0.2601281 -0.9124626 -1.621968 -1.897281 -1.560942 -1.855486 -1.634278 2.0524 0.752526 0.316712 2.645636 -0.1337082 -1.93333 -1.456749 4.536895 1.346817 -0.7014984 -0.01274185 -0.7718633 -0.09299327 2.251129 1.877899 0.673319 -0.7074527 0.07271653 -0.68523 -0.3014889 -0.5480985 0.247158 -0.7295907 0.2224094 -0.699099 1.286062 -0.1251203 5.497249 1.548047 2 -100
-1.63732 -0.8321301 -1.62462 -0.9795728 -0.7314215 -0.9992073 -0.458986 -0.5740741 -1.733366 -1.913389 -1.672406 -1.856782 -1.72932 2.152104 0.9150738 0.156492 2.585289 -0.3867795 -1.909734 -1.556508 4.570108 1.198096 -0.4413668 -0.2463012 -0.5185366 -0.3453291 2.180691 1.788588 0.6627573 -0.4270515 -0.1030437 -0.3968278 -0.2403678 -0.3241133 0.5178392 -0.4594212 0.4244191 -0.4185313 1.30918 0.05534978 4.682714 1.317845 2 -96
-1.548145 -0.9066595 -1.499209 -1.092638 -0.5344999 -1.027636 -0.5881975 -0.5099747 -1.742998 -1.890152 -1.706419 -1.846007 -1.739941 2.210284 0.9793632 -0.04346756 2.443258 -0.635298 -1.88565 -1.561937 4.706323 1.079738 -0.164919 -0.4587396 -0.2535858 -0.545172 2.242639 1.83432 0.6220967 -0.1775536 -0.5118752 -0.1602695 -0.3385232 -0.09969819 0.6670481 -0.2005933 0.4187263 -0.1737444 1.199689 0.1137256 4.051157 1.275498 2 -92
-1.417377 -0.9046786 -1.241427 -1.095972 -0.3273716 -0.9069108 -0.4550022 -0.6054614 -1.709365 -1.675211 -1.709665 -1.66951 -1.70952 2.304021 1.033418 -0.05998578 2.305923 -0.6867118 -1.671638 -1.554424 4.90608 1.001256 -0.1211817 -0.5213726 -0.1924064 -0.5858853 2.401755 1.965144 0.616455 -0.1486479 -0.8712211 -0.1591598 -0.6046395 -0.07750639 0.5632428 -0.1652151 0.1536506 -0.1778698 0.8494577 -0.1222044 3.651536 1.396058 2 -88
-1.349207 -0.9506546 -0.9246267 -0.9556191 -0.1901423 -0.7746033 -0.2939553 -0.7262167 -1.716134 -1.525766 -1.726358 -1.552677 -1.716914 2.342611 1.010588 0.0781645 2.215119 -0.5691413 -1.508827 -1.613204 5.015383 0.9579483 -0.1498099 -0.4925336 -0.1701202 -0.5460958 2.452066 2.071808 0.651417 -0.1415512 -0.9629014 -0.1675326 -0.8108216 -0.08475015 0.3052553 -0.1706113 -0.114696 -0.1874774 0.4483376 -0.3282592 3.262882 1.60966 2 -84
-1.410517 -1.124727 -0.8215301 -0.99024 -0.3020114 -0.7877815 -0.4635582 -0.8171993 -1.835785 -1.646485 -1.807607 -1.690095 -1.81945 2.316557 0.8456799 0.1410834 2.103286 -0.4039358 -1.634895 -1.794548 5.003308 1.007145 -0.08854448 -0.5062416 -0.06374151 -0.5620619 2.409404 2.137263 0.760079 -0.02936868 -0.7153622 -0.04425547 -0.7707298 0.03824678 0.1858928 -0.0640799 -0.1009826 -0.03332749 0.2649518 -0.1926916 3.031384 2.277717 2 -80
-1.570592 -1.376194 -1.004211 -1.186282 -0.6151635 -1.008526 -0.8897837 -1.053186 -1.890897 -1.884578 -1.82306 -1.918081 -1.868031 2.324342 0.644333 0.04078603 1.809762 -0.1999953 -1.87597 -1.921473 4.964936 1.236848 -0.05600457 -0.4840553 -0.0454863 -0.5310701 2.486906 2.141543 1.0221 0.004367178 -0.2744457 0.03255447 -0.6000591 0.1221342 0.3072569 0.00480654 0.09800872 0.08319139 0.2517128 0.06268356 3.153642 3.285885 2 -76
-1.639545 -1.526407 -1.163355 -1.161527 -0.8576146 -1.24934 -1.229869 -1.460374 -1.621008 -1.986781 -1.548218 -1.983366 -1.622731 2.363133 0.4920225 -0.1082396 1.270949 0.001010071 -1.943825 -1.720418 4.850025 1.54739 -0.1476128 -0.313093 -0.1770947 -0.3220774 2.686067 2.015298 1.353087 -0.1384661 0.01261507 -0.04939903 -0.5212515 0.03546424 0.4966878 -0.08752573 0.2037328 0.008212436 0.1883886 0.1409542 3.351231 3.563317 2 -72
-1.421209 -1.345638 -1.016354 -0.7488238 -0.8556974 -1.20203 -1.223785 -1.613468 -1.000508 -1.822932 -0.9448053 -1.789056 -1.02755 2.293941 0.3825614 -0.1532558 0.6499252 0.1086457 -1.735179 -1.104312 4.443756 1.693602 -0.4703999 0.1111929 -0.5009112 0.134711 2.737081 1.707595 1.591381 -0.526475 -0.01357855 -0.4007396 -0.5670362 -0.2959788 0.6073722 -0.4635746 0.1741335 -0.3404869 0.07355109 0.04999106 3.16643 2.657511 2 -68
-1.023695 -0.7666807 -0.6799924 -0.19076 -0.6499811 -0.8200607 -0.8619709 -1.428996 -0.1595297 -1.41666 -0.1314813 -1.382842 -0.1981207 2.028918 0.3418703 -0.02685472 0.1666932 0.1008495 -1.331076 -0.2012166 3.65702 1.552863 -1.019641 0.7516514 -1.037294 0.7878771 2.423344 1.251787 1.671127 -1.111097 -0.1627192 -1.007257 -0.624326 -0.8408064 0.5377687 -1.10218 0.07888269 -0.9252037 -0.04182477 -0.1360247 2.562334 1.365962 2 -64
-0.8229366 -0.1652237 -0.4886499 -0.03343352 -0.4130457 -0.3490273 -0.4721006 -1.245622 0.4516569 -0.9760888 0.4576439 -0.9679911 0.4075838 1.608425 0.3723325 0.1313705 -0.1559276 -0.02209711 -0.966882 0.4398024 2.570681 1.206012 -1.240794 1.064698 -1.246633 1.119173 1.833625 0.8072595 1.531838 -1.314403 -0.1479018 -1.238339 -0.5221088 -1.061948 0.3076522 -1.385311 0.03138347 -1.173664 -0.0925728 -0.1702779 1.789738 0.5421876 2 -60
-0.7622038 0.2014256 -0.4199438 -0.2419435 -0.1147195 0.06299047 -0.2218728 -1.169261 0.5926676 -0.7385676 0.5989403 -0.7342598 0.5297235 1.120995 0.4622316 0.2390893 -0.4610451 -0.1624336 -0.8165941 0.5295463 1.300684 0.8089974 -0.9781847 0.6865129 -0.9568745 0.761363 1.215061 0.4281618 1.188682 -1.00792 0.1408777 -0.9517096 -0.1812081 -0.8292625 0.1779734 -1.132842 0.2273922 -0.9186008 0.06048959 0.08715448 0.9125187 0.4656606 2 -56
-0.4209978 0.5344223 -0.1142824 -0.1009856 0.4524053 0.5512578 0.167512 -1.112812 0.5932751 -0.5680048 0.6212654 -0.5302886 0.5060808 0.6151054 0.6332023 0.4504845 -0.8371493 -0.1561555 -0.6730505 0.4621107 -0.0522602 0.3873501 -0.852949 0.05813111 -0.8167933 0.1426468 0.6445599 0.008841926 0.7798489 -0.8468762 0.5347071 -0.8567694 0.2330125 -0.7510459 0.2916015 -0.9873948 0.6123465 -0.7990608 0.3371731 0.2901227 -0.09449196 0.6633703 2 -52
0.09573133 0.8419008 0.5165575 0.4498428 1.113028 1.136352 0.7427797 -0.93533 0.6502016 -0.05855005 0.7145409 -0.003544076 0.6087307 0.02806633 0.7806078 0.7269377 -1.211839 -0.08377593 -0.1434733 0.5354417 -1.46234 -0.2120096 -0.9224207 -0.4079473 -0.903061 -0.3313577 -0.01185378 -0.4562903 0.3250691 -0.9074315 0.7133986 -0.968766 0.5020971 -0.8606067 0.4197226 -1.011728 0.7968474 -0.8853061 0.440084 0.2868145 -1.112721 0.4650393 2 -48
0.5647781 1.03192 1.206838 0.921076 1.440165 1.589715 1.107772 -0.4037915 0.8732128 0.803555 0.9465718 0.8509645 0.9496206 -0.7036649 0.6983767 0.7693627 -1.462016 -0.1990908 0.7562624 0.8677587 -2.914342 -1.06441 -0.7743216 -0.7193264 -0.7777501 -0.6540269 -0.8946371 -0.9435174 -0.2811959 -0.7785723 0.5223904 -0.8147217 0.5835819 -0.7468344 0.2705402 -0.8043392 0.5960084 -0.7648171 0.2309498 0.2145445 -2.084692 -0.01054677 2 -44
1.133151 1.169069 1.710647 1.274971 1.355215 1.748637 1.060861 0.4674826 1.314455 1.555819 1.327198 1.597763 1.460876 -1.465184 0.3480626 0.4793486 -1.597409 -0.46448 1.550693 1.402848 -4.240276 -1.913743 -0.4014331 -0.8438742 -0.3912172 -0.7679948 -1.900562 -1.450057 -0.9574226 -0.3991751 0.1508333 -0.4113098 0.5628742 -0.392506 -0.09441385 -0.3659348 0.2253281 -0.4055809 -0.1054345 0.1050683 -2.986994 -0.4472477 2 -40
1.746374 1.207316 1.983343 1.643705 1.118143 1.651197 0.9132229 1.229458 1.703677 1.839305 1.619071 1.865405 1.811187 -2.043667 -0.08986174 0.08348009 -1.724281 -0.5331557 1.856002 1.781862 -5.210856 -2.377449 -0.005181703 -0.7828917 0.05673088 -0.6801764 -2.713034 -1.856606 -1.44438 0.05188582 -0.1202626 0.001548572 0.4986071 -0.003409646 -0.3886132 0.07348774 -0.1292585 0.01198558 -0.331517 0.01504838 -3.571738 -0.7556639 2 -36
2.165042 1.187288 2.079085 1.916801 0.9601013 1.466721 1.073889 1.516054 1.826596 1.792355 1.694829 1.784575 1.853876 -2.37266 -0.434791 -0.1142626 -1.844509 -0.2288981 1.801201 1.821896 -5.755818 -2.3627 0.2482501 -0.593053 0.3528096 -0.4705192 -3.148536 -2.060866 -1.616714 0.3300148 -0.1995127 0.2285022 0.4365813 0.2153681 -0.5048103 0.3113972 -0.3784289 0.2745588 -0.4054807 -0.04018418 -3.75975 -1.046502 2 -32
2.282138 1.216507 2.005918 1.966619 0.8851445 1.278594 1.467574 1.39823 1.582683 1.808551 1.502657 1.781892 1.572351 -2.565759 -0.6901063 -0.02780633 -1.871726 0.2498506 1.807002 1.513339 -5.943486 -2.108336 0.4191958 -0.2606639 0.5269568 -0.1725069 -3.277572 -2.076918 -1.574922 0.4610627 -0.1463276 0.3521039 0.4578775 0.3163674 -0.5515812 0.4555845 -0.4293906 0.4068026 -0.4218658 -0.07199044 -3.766261 -1.757439 2 -28
2.095346 1.153086 1.755521 1.793462 0.7625998 1.007299 1.683342 1.192312 1.011316 1.984111 1.013583 1.958767 1.016138 -2.72599 -0.9730429 0.1347332 -1.757998 0.630169 1.981882 0.9171222 -5.838881 -1.828298 0.7106138 0.1244014 0.7827467 0.1219507 -3.269817 -1.97249 -1.465253 0.7138954 0.03756727 0.6318725 0.5932868 0.5343407 -0.6190165 0.7634209 -0.3044433 0.6356485 -0.4631448 -0.07563594 -3.661461 -2.785139 2 -24
1.777391 0.9218596 1.321645 1.387687 0.4824207 0.6109946 1.474918 1.23863 0.5308222 2.042424 0.5465723 2.012528 0.5469299 -2.866376 -1.32485 0.08131626 -1.523659 0.8041219 2.035959 0.4191392 -5.459766 -1.503777 1.103736 0.4187683 1.129646 0.3571523 -3.197735 -1.863184 -1.34907 1.11046 0.3738086 1.062331 0.7698336 0.8739126 -0.6586257 1.193744 -0.1170654 0.9831547 -0.5296842 -0.06010674 -3.58623 -3.571715 2 -20
1.464214 0.6407289 0.6810557 0.6742443 0.01553507 0.1769097 0.7804685 1.579217 0.4772501 1.950855 0.4373248 1.906063 0.4579933 -2.969603 -1.667299 -0.3046506 -1.302728 0.8107747 1.948881 0.3635556 -4.820785 -1.093477 1.455498 0.6031305 1.452391 0.5370477 -2.987908 -1.83043 -1.255206 1.467896 0.7145581 1.459948 0.8600685 1.189905 -0.6135277 1.558393 -0.01905125 1.322197 -0.5895181 0.05230344 -3.788846 -3.795081 2 -16
1.153365 0.3367516 0.009702184 -0.2151434 -0.501896 -0.1948942 -0.2680764 1.900298 0.7670754 2.047582 0.6709089 1.980132 0.7108314 -2.971426 -1.892957 -0.8197098 -1.178899 0.7563062 2.076256 0.6989132 -3.980895 -0.6549558 1.652572 0.7474481 1.631352 0.6829911 -2.629074 -1.866139 -1.217453 1.643164 0.8082693 1.667514 0.7177344 1.348669 -0.5914066 1.730512 -0.226382 1.510876 -0.7810909 0.165034 -3.983601 -3.440855 2 -12
1.021474 0.09324076 -0.3273284 -0.9145617 -0.7937052 -0.4522822 -1.204173 2.023652 1.181779 2.204603 1.078358 2.126586 1.144756 -2.74981 -1.907611 -1.107649 -0.9245405 0.705847 2.250561 1.189833 -2.973715 -0.1941707 1.603034 0.9080287 1.570408 0.8491272 -2.195385 -1.882133 -1.196937 1.573503 0.458427 1.585702 0.2582061 1.258919 -0.7698288 1.654986 -0.8377212 1.452088 -1.27618 0.01682402 -3.693056 -2.808931 2 -8
1.096333 0.02158559 -0.2764584 -1.203294 -0.7459592 -0.5902882 -1.580884 2.022896 1.474892 1.971285 1.401494 1.915313 1.489179 -2.326767 -1.71173 -1.063479 -0.3421126 0.6980817 1.965422 1.54162 -1.871783 0.289261 1.343365 1.168871 1.320328 1.113228 -1.738211 -1.776878 -1.090701 1.305792 -0.3110169 1.290209 -0.3911996 0.9832377 -1.111187 1.38401 -1.605852 1.214056 -1.901713 -0.3331239 -3.022971 -2.014631 2 -4
1.021809 0.01173386 -0.1774288 -1.075126 -0.5298973 -0.669043 -1.475346 1.863391 1.517214 1.462232 1.45672 1.447752 1.559475 -1.879429 -1.430582 -0.8858965 0.3228182 0.7946448 1.366542 1.607369 -0.8686039 0.7305059 1.06388 1.518369 1.072841 1.450561 -1.315162 -1.560716 -0.8777578 1.013217 -1.154041 1.016666 -1.01307 0.711917 -1.386743 1.060077 -2.242559 0.9741354 -2.426488 -0.6057721 -2.266059 -1.20435 2 0
0.6422927 -0.05632323 -0.2910402 -0.7274281 -0.2882762 -0.6870208 -1.256971 1.451715 1.450395 1.041966 1.356259 1.055993 1.468131 -1.409018 -1.092517 -0.7359613 0.7752386 1.040581 0.8947707 1.522353 -0.005450292 1.193452 0.806289 1.659053 0.8322268 1.59655 -0.874788 -1.253007 -0.5758405 0.727731 -1.617203 0.7757103 -1.527763 0.4865252 -1.449725 0.6967816 -2.708191 0.7283135 -2.881677 -0.7209135 -1.347006 -0.6968927 2 4
0.1871342 -0.1593948 -0.5180994 -0.5524347 -0.03678304 -0.5922193 -0.9895231 1.0012 1.405012 0.7562969 1.265239 0.7594231 1.373121 -0.8264264 -0.6544179 -0.6148927 0.9905733 1.378921 0.5967999 1.442188 0.8115333 1.707717 0.4085201 1.41343 0.4146909 1.377931 -0.3254177 -0.8843798 -0.2473951 0.2925779 -1.574092 0.3602383 -1.873047 0.1514171 -1.34298 0.2011038 -2.922488 0.320291 -3.212817 -0.8078623 -0.2501635 -0.2304511 2 8
-0.03605199 -0.2842478 -0.5215201 -0.6494113 0.1839341 -0.4909757 -0.6086804 0.7977827 1.409387 0.5278063 1.259879 0.5101804 1.353718 -0.2573344 -0.183296 -0.4584595 1.038724 1.605866 0.3583798 1.451746 1.497277 2.018411 -0.06285433 0.9819385 -0.08112539 0.9561321 0.1590004 -0.6333616 -0.1399552 -0.2018733 -1.35877 -0.1407577 -1.969133 -0.2766529 -1.294245 -0.2698017 -2.824568 -0.1539275 -3.289328 -0.9918902 0.5090086 0.5586112 2 12
0.03977021 -0.4426034 -0.2235189 -0.7740257 0.3075663 -0.521127 -0.4452726 0.7781557 1.490733 0.4816333 1.35157 0.4737397 1.427651 0.1471514 0.2543734 -0.2573124 1.017551 1.572038 0.3300318 1.563121 1.885835 1.952218 -0.2604389 0.5278733 -0.3049219 0.499478 0.2821444 -0.6112891 -0.4234039 -0.4094791 -1.373761 -0.3692373 -1.959919 -0.497717 -1.557162 -0.4065069 -2.716608 -0.3592054 -3.364978 -1.226181 0.5772843 1.544851 2 16
0.2490099 -0.5258275 0.02901681 -0.7856612 0.3355648 -0.543455 -0.7588379 0.8872048 1.512232 0.7986082 1.369526 0.8125875 1.436265 0.4828891 0.6977747 -0.07305555 1.024909 1.418244 0.7284915 1.58205 2.005374 1.71242 -0.1578888 0.07433207 -0.2426577 0.06201149 0.08169647 -0.6937668 -0.9412232 -0.326496 -1.734938 -0.3210112 -2.130074 -0.4480451 -2.096332 -0.2893608 -2.929507 -0.2805033 -3.755154 -1.425627 0.5335741 2.625284 2 20
0.4878102 -0.4525882 0.09448821 -0.5884483 0.4226951 -0.3408043 -1.149879 1.078537 1.335907 1.293925 1.200669 1.311417 1.252444 0.8727983 1.210298 0.1127133 1.052888 1.394234 1.304652 1.362834 2.01239 1.537105 -0.1277653 -0.2401823 -0.2306004 -0.2290263 -0.1553197 -0.7207029 -1.459111 -0.3142002 -2.256378 -0.3445848 -2.528548 -0.4360879 -2.653714 -0.2927983 -3.431049 -0.2583116 -4.306328 -1.625178 0.9847568 3.819531 2 24
0.7196661 -0.304811 0.217793 -0.167217 0.7208631 0.04854999 -1.181229 1.0826 1.130132 1.671483 1.025496 1.671227 1.044031 1.248642 1.738574 0.3622 0.9846169 1.52068 1.667381 1.092837 1.90888 1.334352 -0.2548905 -0.3390691 -0.3377837 -0.3268315 -0.3796641 -0.7194767 -1.945819 -0.4308522 -2.769657 -0.4729528 -2.980788 -0.5373535 -3.201895 -0.4286847 -4.060349 -0.3678085 -4.783593 -1.870871 1.744167 4.927841 2 28
1.020872 -0.0436472 0.5028216 0.2856001 1.196052 0.5635423 -0.9472727 1.077109 1.195981 1.946727 1.118322 1.911908 1.110759 1.610639 2.168414 0.7358794 0.8577833 1.760213 1.85315 1.108806 1.596891 1.006158 -0.4470625 -0.3755764 -0.4962724 -0.3955697 -0.7348512 -0.8258554 -2.459817 -0.5898489 -3.380944 -0.6269112 -3.499545 -0.6904933 -3.915553 -0.5893404 -4.830913 -0.5488939 -5.355736 -2.225139 2.559628 5.791921 2 32
1.507067 0.4121384 0.9182132 0.7810779 1.749713 1.199612 -0.5476034 1.390867 1.632518 2.024835 1.593652 1.958348 1.545479 1.994403 2.481652 1.316238 0.8720127 2.211076 1.868778 1.524919 1.096804 0.7009681 -0.7796376 -0.4250716 -0.8010182 -0.4917291 -1.271974 -1.09878 -2.948976 -0.88967 -4.057693 -0.9200545 -4.120747 -0.9896905 -4.745347 -0.8909397 -5.70735 -0.8807615 -6.127301 -2.665252 3.199541 6.379457 2 36
2.009164 0.9116862 1.547868 1.488262 2.353171 1.828801 0.2128889 1.700218 2.175687 1.756314 2.179346 1.69573 2.067921 2.238197 2.726953 2.035801 1.005516 2.748738 1.608535 2.043476 0.551046 0.4411523 -1.100413 -0.4922185 -1.11826 -0.5866538 -1.940506 -1.480111 -3.416929 -1.198353 -4.580353 -1.207508 -4.623217 -1.298881 -5.517468 -1.217384 -6.468825 -1.214088 -6.792743 -3.012487 3.30277 6.637181 2 40
2.28494 1.304803 2.365398 2.145397 2.955998 2.335615 1.28751 1.6597 2.553015 1.424296 2.552714 1.381871 2.427576 2.266742 2.931212 2.670014 1.067056 3.053137 1.302197 2.410716 0.1019423 0.1169199 -1.180122 -0.6352282 -1.224397 -0.7226083 -2.637976 -1.824338 -3.948835 -1.289522 -5.027563 -1.266448 -4.931283 -1.39754 -6.221587 -1.328354 -7.055417 -1.331154 -7.240502 -3.232385 3.123035 6.773544 2 44
2.407133 1.636873 3.236823 2.425718 3.475097 2.722259 2.345052 1.439452 2.984874 1.373188 2.942077 1.308276 2.866868 2.209205 3.114201 3.130996 1.020384 3.113901 1.232997 2.891882 -0.2860777 -0.2626466 -1.218103 -0.7444214 -1.280214 -0.8020373 -3.340082 -2.080944 -4.496711 -1.32772 -5.573494 -1.287811 -5.240325 -1.456597 -6.943182 -1.372898 -7.656627 -1.375687 -7.757582 -3.490491 3.209469 6.906978 2 48
2.722077 2.042185 4.147778 2.664124 3.976028 3.120635 3.193138 1.52757 3.783361 1.776253 3.673575 1.656745 3.67162 2.174695 3.338117 3.531561 1.02219 3.078677 1.590991 3.766108 -0.7852242 -0.7304091 -1.478645 -0.7492613 -1.517865 -0.7798219 -4.187103 -2.379697 -5.096985 -1.560996 -6.311006 -1.52686 -5.80606 -1.738813 -7.875505 -1.611105 -8.604615 -1.587948 -8.699319 -4.010885 3.575284 7.005344 2 52
3.490737 2.639774 4.9715 3.249248 4.536332 3.720448 3.663822 2.272421 4.674277 2.628911 4.47432 2.456392 4.551558 2.185079 3.646647 3.90538 1.224699 2.87735 2.424797 4.691664 -1.456143 -1.401385 -1.78042 -0.8534384 -1.809971 -0.8618407 -5.287167 -2.796256 -5.927833 -1.854198 -7.296382 -1.845375 -6.66864 -2.106506 -9.190174 -1.91195 -9.988334 -1.893621 -10.04014 -4.865951 3.97806 7.571662 2 56
4.460255 3.349425 5.579366 3.925057 5.050367 4.506824 3.736695 3.304481 5.252469 3.502477 4.989698 3.306834 5.12673 2.185046 3.995593 4.172988 1.522631 2.548113 3.327471 5.253131 -2.189043 -2.157769 -1.904632 -1.141703 -1.991673 -1.133608 -6.501205 -3.261319 -6.85553 -2.017766 -8.281352 -2.056285 -7.437308 -2.327518 -10.58367 -2.083204 -11.27783 -2.102838 -11.14194 -5.678404 4.350468 8.678906 2 60
5.082744 3.883723 6.119946 4.418551 5.46345 5.166367 3.860216 3.840791 5.671869 3.86125 5.431482 3.687626 5.565196 2.126688 4.310221 4.380693 1.565916 2.491142 3.743123 5.655248 -2.865117 -2.646395 -2.026466 -1.296534 -2.186744 -1.289797 -7.54528 -3.718076 -7.44362 -2.189783 -8.938754 -2.262628 -7.800231 -2.507019 -11.5081 -2.274257 -12.00552 -2.26757 -11.58104 -6.042728 4.62373 9.446217 2 64
5.335127 4.20238 6.519867 4.790263 5.763402 5.442951 4.248683 3.738677 6.130462 3.735054 5.98078 3.598651 6.024408 1.994666 4.459144 4.608717 1.127878 2.924023 3.649121 6.099864 -3.517541 -2.756055 -2.233614 -1.034892 -2.404737 -1.028561 -8.270707 -4.176685 -7.514502 -2.412164 -9.294897 -2.470017 -7.941478 -2.706599 -11.89476 -2.504856 -12.36689 -2.433604 -11.67438 -6.089968 4.565452 9.786948 2 68
5.593822 4.473624 6.52614 5.015733 5.774158 5.376114 4.518489 3.527727 6.423714 3.53176 6.343709 3.412391 6.262969 1.715913 4.260536 4.755629 0.362405 3.537626 3.42844 6.333509 -4.286158 -2.722142 -2.277213 -0.5062762 -2.411614 -0.4925847 -8.761447 -4.643643 -7.276527 -2.441839 -9.491143 -2.461323 -8.033533 -2.721996 -11.98754 -2.495246 -12.60052 -2.411684 -11.69774 -6.041545 4.16707 10.42038 2 72
5.845018 4.597722 6.285534 5.12142 5.435171 5.056127 4.587438 3.567771 6.46999 3.408252 6.403431 3.289303 6.246398 1.29821 3.760902 4.727289 -0.3955849 4.019903 3.271124 6.272957 -5.173449 -2.688634 -2.119603 0.1093924 -2.231017 0.1108199 -9.162121 -5.082619 -6.916156 -2.267025 -9.58283 -2.257094 -7.973225 -2.546617 -11.85682 -2.281912 -12.60202 -2.209708 -11.54988 -5.91888 3.769353 11.16106 2 76
5.902555 4.453521 6.083003 5.307312 4.942043 4.616524 4.706392 3.885186 6.472437 3.321252 6.406561 3.214654 6.243868 0.8939162 3.20574 4.546337 -1.002815 4.321592 3.166482 6.187411 -5.981067 -2.60678 -1.94347 0.6465571 -2.03359 0.6046246 -9.470366 -5.426871 -6.521655 -2.051657 -9.595484 -2.030966 -7.764284 -2.319672 -11.56105 -2.089091 -12.41124 -2.023276 -11.26627 -5.741709 3.579432 11.1346 2 80
5.762856 4.169327 5.962994 5.491266 4.397116 4.25815 4.761193 4.252743 6.598427 3.198924 6.532892 3.141784 6.411931 0.4965579 2.624138 4.113887 -1.624847 4.340683 3.052155 6.3325 -6.594159 -2.487997 -1.687752 0.7941873 -1.734645 0.6815624 -9.596949 -5.63684 -6.168477 -1.739083 -9.431309 -1.70659 -7.44231 -1.969896 -11.13312 -1.806945 -12.12625 -1.757726 -10.88978 -5.339187 3.490745 10.00845 2 84
5.564883 3.924562 5.844516 5.405881 3.774812 3.97594 4.629913 4.481208 6.846552 3.068611 6.765772 3.062843 6.700871 -0.01448727 1.90199 3.364295 -2.396137 4.031683 2.96139 6.706424 -7.072794 -2.386501 -1.329281 0.6557776 -1.339529 0.4811922 -9.560821 -5.727716 -5.803769 -1.359103 -9.102896 -1.295323 -6.979966 -1.543779 -10.50896 -1.396647 -11.63903 -1.362046 -10.31955 -4.713608 3.296951 8.406357 2 88
5.535564 3.839367 5.659141 5.143377 3.161681 3.65997 4.549057 4.719747 7.01421 3.084438 6.894287 3.082033 6.877119 -0.5441836 1.149096 2.595446 -3.094063 3.618386 3.043913 6.989144 -7.395146 -2.294077 -1.029124 0.5227098 -1.004154 0.3577817 -9.441544 -5.683206 -5.403638 -1.062838 -8.84961 -0.9743534 -6.584805 -1.227789 -9.89529 -1.027387 -11.1134 -1.012187 -9.769196 -4.311928 2.919622 7.301687 2 92
5.542275 3.870515 5.300757 4.892056 2.628767 3.30902 4.586929 4.973177 6.890481 3.232842 6.710277 3.207838 6.736228 -0.9438646 0.5300472 2.099851 -3.403447 3.318346 3.255608 6.892603 -7.47558 -2.174152 -0.7409523 0.3423842 -0.6696041 0.2439265 -9.261186 -5.483232 -5.052997 -0.7569075 -8.761429 -0.6623529 -6.419466 -0.9322898 -9.543841 -0.6733469 -10.83513 -0.6797144 -9.471029 -4.193439 2.388796 7.181304 2 96
5.295 3.902705 4.713238 4.53904 2.130501 2.945337 4.538185 4.997543 6.526534 3.383741 6.303029 3.341641 6.379283 -1.178528 0.01600057 1.808311 -3.302814 3.227509 3.430598 6.507116 -7.312884 -1.909137 -0.45657 0.2024435 -0.3716693 0.1495472 -8.966596 -5.180645 -4.733748 -0.4572444 -8.756967 -0.3665849 -6.395561 -0.6094276 -9.355531 -0.3734617 -10.772 -0.3644292 -9.359576 -4.044878 1.944666 7.98537 2 100
4.915387 3.874635 4.045652 4.051519 1.662056 2.518549 4.368027 4.682141 6.062353 3.373839 5.840604 3.313232 5.954376 -1.201947 -0.4368608 1.570904 -3.044841 3.357832 3.397473 6.03421 -6.88867 -1.40419 -0.2887982 0.3213164 -0.2359631 0.2799239 -8.41401 -4.766255 -4.383152 -0.3111514 -8.810532 -0.225147 -6.469452 -0.370156 -9.205652 -0.2140352 -10.82202 -0.1798061 -9.37901 -3.868118 2.130982 9.164435 2 104
4.543654 3.692431 3.478913 3.546217 1.216932 1.972506 4.179878 4.0881 5.5962 2.94793 5.397111 2.868379 5.505507 -1.030779 -0.8211077 1.350395 -2.855504 3.545466 2.923069 5.593159 -6.215766 -0.7842445 -0.1872468 0.6628275 -0.1701173 0.6164297 -7.583808 -4.203033 -3.979771 -0.2374098 -8.880177 -0.1374033 -6.544991 -0.1814686 -9.015438 -0.07992133 -10.79858 -0.07512526 -9.328626 -3.741751 3.050336 10.07726 2 108
4.092833 3.303531 3.14125 3.029649 0.7542685 1.352813 4.00399 3.462289 5.349279 2.133724 5.169686 2.056551 5.244043 -0.7590013 -1.141137 1.194259 -2.673755 3.619221 2.082648 5.396775 -5.440826 -0.229818 -0.1566543 1.110494 -0.1471213 1.02147 -6.722792 -3.581512 -3.518612 -0.2092253 -8.851505 -0.07950887 -6.496805 -0.05047625 -8.70369 -0.000869751 -10.56687 -0.05266987 -9.05592 -3.595592 4.125556 10.39011 2 112
3.602401 2.752473 2.999981 2.571176 0.2721406 0.735323 3.713163 3.100964 5.244954 1.420651 5.089441 1.357734 5.138533 -0.4271833 -1.358131 1.125314 -2.299058 3.555576 1.386012 5.333105 -4.695165 0.1853817 -0.1574585 1.46785 -0.1232203 1.309792 -6.045503 -3.020927 -3.096375 -0.1835131 -8.713189 -0.04138981 -6.398085 0.03912631 -8.398081 0.0122695 -10.31869 -0.0445691 -8.780725 -3.410886 4.997879 10.10122 2 116
3.224624 2.204669 2.738032 2.370489 -0.172886 0.2300768 3.193203 2.88027 4.858659 1.087229 4.745152 1.022074 4.767591 -0.05696357 -1.384382 1.062004 -1.728989 3.399814 1.061078 4.941608 -3.980262 0.5079721 -0.03340184 1.520962 0.02229864 1.332268 -5.502934 -2.57947 -2.796555 -0.01847098 -8.463554 0.09989825 -6.312167 0.2002924 -8.184347 0.121991 -10.15301 0.1023427 -8.615476 -3.227984 5.748971 9.767417 2 120
3.022009 1.846317 2.257921 2.521809 -0.4117082 -0.01196107 2.667468 2.469495 4.219596 0.8396347 4.155017 0.767441 4.109136 0.3404418 -1.135278 0.9957144 -1.128209 3.265958 0.7749254 4.263669 -3.246162 0.9094499 0.091465 1.290745 0.1394445 1.1329 -4.907102 -2.254963 -2.530434 0.1332541 -8.037864 0.2039382 -6.25012 0.3270736 -7.942962 0.2293823 -9.995507 0.2146752 -8.514096 -3.117344 6.313027 9.981817 2 124
2.866828 1.639616 1.886483 2.791243 -0.3506314 0.02556471 2.39762 1.910085 3.709966 0.4022207 3.661571 0.3199588 3.519822 0.7488081 -0.6648409 1.000215 -0.6434014 3.229944 0.294057 3.731487 -2.577976 1.427819 0.002555847 1.013084 0.04465701 0.8967376 -4.231075 -2.039933 -2.200308 0.05902993 -7.594135 0.08832104 -6.269023 0.2578986 -7.633418 0.1279946 -9.838546 0.103935 -8.484708 -3.071049 6.571633 10.87022 2 128
2.546246 1.52019 1.82094 2.840631 -0.148336 0.2808081 2.347255 1.359624 3.444463 -0.1748416 3.374034 -0.2786294 3.164253 1.053312 -0.1955327 1.080823 -0.3768611 3.199571 -0.2844287 3.488584 -2.189816 1.839492 -0.2536781 0.898622 -0.2093963 0.7879374 -3.682368 -1.998415 -1.841562 -0.1774509 -7.223907 -0.1583359 -6.242448 0.0572567 -7.305604 -0.1442917 -9.581177 -0.1155529 -8.351753 -2.885326 6.71827 11.99745 2 132
