Fp1 Fp2 AF3 AF4 Fz F3 F4 F7 F8 FC5 FC6 FT7 FT8 Cz FC1 FC2 C3 C4 T7 T8 A1 A2 CP1 CP2 CP5 CP6 TP7 TP8 Pz P3 P4 P7 P8 PO9 PO10 PO3 PO4 PO7 PO8 O1 O2 Oz ID time
3.26763 1.256855 2.498053 1.093537 1.978493 2.222868 3.903713 0.2363297 3.133441 0.5957661 3.300409 -2.877528 3.252668 1.226794 2.743502 2.666921 1.203349 1.246044 -3.709787 1.83099 -1.253316 -1.196451 -1.740435 0.9069954 -2.253903 0.526741 -3.513891 -2.085489 -1.91216 -2.555202 -0.8860757 -4.838294 -4.27705 -4.341682 -4.322913 -3.449415 -4.220397 -5.17239 -4.672337 -5.914228 4.339677 21.76221 1 -168
3.27296 0.98339 2.173645 0.8399872 1.936069 1.541734 3.919663 0.04267615 3.134499 0.4912908 3.618259 -2.247927 3.576971 1.020133 2.586669 2.446192 0.9927445 1.263452 -3.565781 1.880183 -1.381191 -1.219127 -1.821463 1.101229 -2.560119 0.8410421 -3.454644 -2.146396 -1.770259 -2.698858 -0.6506988 -4.806638 -4.081378 -4.292837 -4.194172 -3.410366 -4.005025 -5.027481 -4.532024 -5.827513 4.35962 21.67151 1 -164
2.777822 0.8317125 1.764137 0.7248822 1.878841 1.136185 3.68184 -0.02157636 2.962271 0.5201744 3.544057 -1.782302 3.530129 0.711328 2.41924 2.097822 0.9022024 1.155283 -3.362418 1.41133 -1.505041 -1.343981 -1.754906 1.177751 -2.49374 0.9952169 -3.440204 -2.102145 -1.700366 -2.584114 -0.4337646 -4.634333 -3.788179 -4.105902 -3.946649 -3.217846 -3.691622 -4.73412 -4.284103 -5.60049 3.923322 22.38229 1 -160
2.520895 0.7935348 1.542376 0.7061554 1.818183 1.304427 3.363314 -0.01886411 2.676553 0.3810176 3.082905 -1.846244 3.12135 0.3698002 2.329197 1.700433 0.869895 0.9102047 -3.385011 0.5835834 -1.596553 -1.507456 -1.56921 1.102677 -2.147394 0.954122 -3.440982 -1.985367 -1.690966 -2.262168 -0.3457791 -4.477723 -3.604504 -3.895804 -3.750923 -2.918525 -3.505987 -4.498539 -4.111186 -5.375727 3.218939 24.58535 1 -156
2.68078 0.9403434 1.660694 0.8409231 1.786387 1.813945 3.168609 -0.04903232 2.603492 0.1825961 2.797087 -2.119126 2.898756 0.03180517 2.290296 1.364412 0.8064177 0.6624808 -3.491786 0.4742175 -1.657574 -1.60215 -1.415577 1.120629 -1.953868 1.142558 -3.461913 -1.913574 -1.638625 -2.126776 -0.2523733 -4.460817 -3.60889 -3.833201 -3.70854 -2.790158 -3.536178 -4.532697 -4.1117 -5.344558 2.744685 25.598 1 -152
2.885102 1.151462 1.992747 1.019482 1.743671 2.165241 3.052541 -0.1511573 2.840876 0.1528874 2.976608 -2.362882 3.086548 -0.2843493 2.211109 1.130751 0.7359406 0.5752895 -3.515131 1.554805 -1.675638 -1.570017 -1.353534 1.453562 -2.060948 1.750596 -3.493445 -1.901617 -1.467007 -2.228685 -0.03768212 -4.521444 -3.72131 -3.872524 -3.77769 -2.885016 -3.662848 -4.79692 -4.215681 -5.51635 2.699905 23.89275 1 -148
2.884655 1.208632 2.095429 1.061702 1.574451 2.019299 2.796071 -0.3701732 3.042464 0.1506443 3.364436 -2.811971 3.420061 -0.5548647 2.032838 0.9171672 0.669452 0.6051555 -3.698515 2.924879 -1.620976 -1.459654 -1.360525 1.900256 -2.235538 2.194582 -3.457672 -1.876608 -1.235531 -2.213936 0.1204005 -4.561142 -3.792919 -3.82255 -3.824141 -2.902341 -3.740299 -5.011516 -4.278462 -5.69663 2.793671 22.74974 1 -144
2.905041 1.164995 1.764133 1.054259 1.377009 1.546403 2.428625 -0.5042586 2.868857 0.03399053 3.482173 -3.361845 3.505165 -0.716156 1.805075 0.7096758 0.6001225 0.61606 -4.123776 3.611787 -1.485746 -1.348651 -1.406339 2.126755 -2.322315 1.923406 -3.317634 -1.797383 -1.066205 -2.007006 0.008416522 -4.606939 -3.829014 -3.648508 -3.829072 -2.741152 -3.784973 -4.990063 -4.246778 -5.733469 2.515649 24.81963 1 -140
3.119528 1.270276 1.44854 1.21423 1.37687 1.259429 2.168648 -0.1830146 2.436543 0.09738456 3.169467 -3.311825 3.17732 -0.6975722 1.694854 0.6247745 0.6710892 0.6606529 -4.114835 3.584861 -1.22358 -1.20333 -1.350423 2.136733 -2.212494 1.245515 -3.092674 -1.636264 -0.9835417 -1.821077 -0.2827189 -4.556847 -3.949259 -3.43705 -3.8926 -2.612309 -3.883541 -4.805343 -4.194721 -5.619637 1.704429 26.00352 1 -136
2.753729 1.486373 1.55443 1.441764 1.501101 1.23773 2.079257 0.3479105 2.139732 0.4424088 2.83949 -2.512816 2.80577 -0.540827 1.737001 0.7102267 0.9329214 0.845138 -3.331493 3.271676 -0.8491545 -0.9823205 -1.120341 2.126854 -1.920739 0.7936376 -2.811604 -1.394142 -0.902218 -1.778955 -0.4537928 -4.264393 -3.966434 -3.237959 -3.869729 -2.61548 -3.873318 -4.577432 -4.07673 -5.379268 1.014092 22.39795 1 -132
1.248412 1.451258 1.898657 1.365093 1.51405 1.074583 2.058878 0.3898931 2.214378 0.6304295 2.814856 -1.748702 2.751845 -0.3648001 1.753753 0.8956972 1.146637 1.088052 -2.587144 2.960765 -0.5364524 -0.774439 -0.9192785 2.156941 -1.804511 0.7361622 -2.558198 -1.167419 -0.8080351 -1.873266 -0.3923219 -3.926673 -3.59293 -3.102196 -3.524658 -2.669307 -3.522934 -4.356269 -3.763909 -5.083778 1.261659 17.66516 1 -128
-0.3308558 1.066941 2.166522 0.9219639 1.421786 0.6479076 2.033072 -0.02666354 2.397703 0.4252391 2.904952 -1.542368 2.83477 -0.2084924 1.685969 1.092725 1.172071 1.23054 -2.413482 2.629886 -0.3594609 -0.6685385 -0.8536019 2.116842 -1.839954 0.7543014 -2.418162 -1.008858 -0.796434 -1.935302 -0.301358 -3.718935 -3.034828 -3.026745 -3.025432 -2.657646 -2.998181 -4.127456 -3.349672 -4.806715 2.077457 15.86838 1 -124
-0.9262555 0.6472527 2.138613 0.4800257 1.34791 0.1560052 1.937294 -0.2940597 2.206095 0.1418275 2.814637 -1.375123 2.71826 -0.01756664 1.662012 1.23028 1.192061 1.209012 -2.173717 2.069614 -0.1705783 -0.643346 -0.6986284 1.923363 -1.554314 0.5798761 -2.319412 -0.7998045 -0.8756534 -1.717611 -0.3120161 -3.392655 -2.611756 -2.871695 -2.636493 -2.454095 -2.5554 -3.808892 -2.95507 -4.462262 2.415649 14.75664 1 -120
-0.6776201 0.4671596 1.856619 0.329037 1.31001 -0.06497955 1.66338 -0.2042854 1.698393 0.1012231 2.42502 -0.7498199 2.296146 0.1876825 1.673532 1.236038 1.330642 1.017668 -1.493912 1.319737 0.07692914 -0.6945764 -0.3553763 1.613366 -1.040242 0.2683408 -2.203095 -0.5066526 -0.9925005 -1.26634 -0.3727611 -2.850831 -2.307542 -2.58161 -2.348392 -2.094525 -2.210038 -3.411935 -2.580888 -4.002017 2.090759 12.04819 1 -116
0.01921096 0.5097977 1.631513 0.4059049 1.233815 0.2401192 1.238423 0.04020962 1.416289 0.1649168 1.83918 -0.06149939 1.728776 0.2360297 1.528451 1.015187 1.394002 0.64859 -0.9620023 0.7954012 0.1635783 -0.9126816 -0.07254779 1.292457 -0.7979407 0.04035783 -2.219976 -0.3524363 -1.163295 -0.8999689 -0.4225804 -2.435706 -2.041631 -2.315613 -2.09433 -1.81519 -1.945897 -3.06169 -2.265095 -3.553599 1.627004 10.18456 1 -112
0.8115531 0.548303 1.492074 0.463472 1.070047 0.7910711 0.848527 0.2750152 1.582047 0.00688076 1.278353 0.2398342 1.243259 0.02053599 1.170177 0.5967043 1.172647 0.1574653 -1.011829 0.6182894 -0.09384931 -1.337553 -0.07350493 1.046465 -0.8966653 0.01922341 -2.472792 -0.4970965 -1.391587 -0.7308785 -0.3903224 -2.30753 -1.748486 -2.198254 -1.843666 -1.666924 -1.713785 -2.799206 -1.967862 -3.149458 1.331918 11.5074 1 -108
1.268157 0.4868181 1.262143 0.4215593 0.8557947 1.092749 0.6036828 0.5108171 1.876459 -0.3591774 0.9737652 0.2206211 1.007032 -0.3418678 0.7551309 0.1819604 0.7567291 -0.2899584 -1.406633 0.5912008 -0.565264 -1.809521 -0.3606313 0.8850998 -1.119623 0.1653782 -2.793222 -0.8092701 -1.599771 -0.6698428 -0.2294412 -2.27751 -1.365078 -2.148678 -1.543238 -1.545961 -1.411971 -2.551696 -1.581648 -2.694962 1.085165 14.47477 1 -104
1.215486 0.4940095 0.9966815 0.4434244 0.6250176 1.051036 0.4865384 0.7949167 1.984481 -0.544998 1.085993 0.25925 1.135453 -0.6891987 0.4133813 -0.1152494 0.4084169 -0.5602284 -1.544033 0.7391935 -0.9754592 -2.127471 -0.7089062 0.7751047 -1.229496 0.502122 -2.932623 -1.04506 -1.701545 -0.6188807 0.03441863 -2.104114 -0.9861448 -2.026142 -1.207482 -1.446053 -1.078258 -2.248436 -1.171277 -2.216439 0.6514232 15.1812 1 -100
0.9318499 0.59185 0.8320109 0.5424126 0.4307508 0.9571696 0.4594971 1.016605 1.915006 -0.3406523 1.407696 0.354348 1.439602 -0.9736364 0.156223 -0.3319355 0.2381366 -0.7116221 -1.236633 1.006497 -1.218447 -2.277765 -0.8379622 0.6576067 -0.9992983 0.9431916 -2.873866 -1.083927 -1.718601 -0.4646481 0.2763622 -1.740786 -0.7525101 -1.822753 -0.9542618 -1.340812 -0.8446417 -1.888547 -0.8976557 -1.832792 0.1073886 12.8796 1 -96
0.6048944 0.611357 0.777227 0.5575028 0.3448059 0.8982849 0.4628781 1.075505 1.793713 0.0168418 1.508661 0.1268255 1.52858 -1.140648 0.002991481 -0.4685547 0.1895599 -0.8274353 -0.8791345 1.200807 -1.291961 -2.288273 -0.6858369 0.5224449 -0.4583018 1.208984 -2.747174 -0.9450819 -1.704612 -0.1718751 0.3385435 -1.323599 -0.6733692 -1.598927 -0.8460764 -1.156222 -0.7534988 -1.502923 -0.7769865 -1.528435 -0.2650367 10.26354 1 -92
0.08228362 0.604975 0.7365865 0.5535541 0.3446124 0.675249 0.4593468 1.098064 1.679887 0.269097 1.361772 -0.2925615 1.380786 -1.16078 -0.005249955 -0.5055482 0.1790888 -0.8950672 -0.6591147 1.399802 -1.212639 -2.139646 -0.4046585 0.4328932 0.08830965 1.20606 -2.576894 -0.7460728 -1.618565 0.1384835 0.2007429 -0.9575672 -0.6935888 -1.386549 -0.8272122 -0.9101406 -0.7793903 -1.146266 -0.7158013 -1.225488 -0.5079184 8.47506 1 -88
-0.4996461 0.6590138 0.5866154 0.6289618 0.3521953 0.424469 0.4249312 1.139316 1.496634 0.4111268 1.148081 -0.6169428 1.166129 -1.120813 0.09578583 -0.5084305 0.1434316 -0.9734764 -0.6158011 1.58139 -1.095459 -1.914428 -0.2117112 0.3795526 0.3713204 0.9241636 -2.325051 -0.6370097 -1.427236 0.2637428 0.01173863 -0.7749022 -0.7005461 -1.221624 -0.782095 -0.7390772 -0.8131117 -0.900184 -0.6314781 -0.9532469 -0.8243649 8.078055 1 -84
-0.7775371 0.5723531 0.4030967 0.5737168 0.3116684 0.3723064 0.2415606 1.145483 1.180357 0.6185436 0.7679492 -0.6757399 0.8060895 -1.08124 0.2043519 -0.5383756 0.1205225 -1.136213 -0.5697771 1.345837 -0.9930906 -1.728061 -0.1079278 0.261299 0.5369364 0.4498163 -1.997395 -0.5657858 -1.180223 0.2260411 -0.03447877 -0.7256995 -0.536802 -1.056274 -0.5865994 -0.6751317 -0.6563972 -0.7287111 -0.4372585 -0.7301574 -1.195254 8.576191 1 -80
-0.713577 0.1913087 0.3660719 0.203276 0.165674 0.2784808 -0.1260524 1.126507 0.8380476 0.9328016 0.2695808 -0.2976336 0.3449808 -1.046725 0.2154309 -0.6091439 0.1527539 -1.313576 -0.1614873 0.6350712 -0.8217059 -1.569783 0.05654565 0.07473803 0.8252585 0.1318457 -1.603551 -0.3574299 -0.9309031 0.2477152 0.1287238 -0.5126693 -0.1846752 -0.7631028 -0.2161849 -0.5538743 -0.2663846 -0.4683475 -0.09910628 -0.4635692 -1.515728 7.410397 1 -76
-0.6639224 -0.3154767 0.3070087 -0.3116561 -0.1053851 -0.04117169 -0.52477 0.9808287 0.5558161 1.035815 -0.1489886 0.1771736 -0.06614518 -0.9637921 0.10764 -0.7287201 0.154732 -1.392246 0.3223411 -0.06976808 -0.554568 -1.347662 0.2132587 -0.03626913 1.018422 0.1437652 -1.112349 -0.03882037 -0.6549332 0.3699042 0.4099089 -0.1088981 0.2406961 -0.3274284 0.2250786 -0.258915 0.2038131 -0.07495648 0.3112944 -0.06566208 -1.593333 4.728446 1 -72
-0.918169 -0.6526408 -0.01387785 -0.6434249 -0.3616973 -0.3246437 -0.7918745 0.7411797 0.2671215 0.8527119 -0.5279406 0.4639076 -0.4926701 -0.7374516 -0.01740686 -0.8169468 0.0840921 -1.323759 0.625321 -0.4803517 -0.2590626 -1.013255 0.2664361 -0.02115203 1.024303 0.3432524 -0.5665305 0.2541559 -0.306905 0.5173828 0.6897048 0.3357992 0.6371287 0.1197074 0.6210341 0.134732 0.6243606 0.3083485 0.6950039 0.3630677 -1.407495 1.708471 1 -68
-1.174904 -0.6745565 -0.4185668 -0.6493644 -0.4443554 -0.3430819 -0.846382 0.7241324 -0.1933649 0.7905827 -0.8693586 0.9000391 -0.9408261 -0.3498466 -0.04159635 -0.7577257 0.07423775 -1.116465 1.147244 -0.8605456 0.07129409 -0.5615185 0.356057 -0.05085465 1.137469 0.4444973 -0.05183901 0.4935206 0.04761828 0.6640373 0.839435 0.8051506 0.9069732 0.475276 0.9080095 0.454945 0.9247475 0.5843281 0.963361 0.6680691 -1.401396 -2.634514 1 -64
-0.9176746 -0.4959757 -0.6692786 -0.4657158 -0.3943831 -0.1263394 -0.7285804 0.8847927 -0.8416047 0.8417745 -1.152061 1.453169 -1.335464 0.08695933 0.01895641 -0.6104869 0.1921499 -0.8437842 1.726625 -1.496957 0.4683293 -0.05261873 0.5365545 -0.2444467 1.221211 0.2431385 0.437225 0.6841212 0.3049205 0.7436777 0.7794325 1.160056 0.9683235 0.7492494 1.022573 0.6303086 1.034413 0.7913841 1.044638 0.8902199 -1.694774 -6.844052 1 -60
-0.2599762 -0.3439243 -0.6623635 -0.3230752 -0.3245868 0.2157017 -0.5888448 0.8347095 -1.356015 0.7098167 -1.359653 1.674572 -1.575627 0.3935752 0.04345788 -0.5025392 0.3340373 -0.5927485 1.869989 -1.968915 0.8352094 0.3788085 0.6743345 -0.4523661 0.966201 -0.04997736 0.8870802 0.8041268 0.4854408 0.7270984 0.6225243 1.306674 0.8926022 0.963742 0.9715431 0.7398269 0.9841408 0.9538965 0.9791679 1.080174 -1.758726 -9.209109 1 -56
0.07123211 -0.331238 -0.3597127 -0.3335392 -0.3094047 0.5261101 -0.598216 0.5128936 -1.458426 0.5930746 -1.307702 1.506681 -1.489408 0.5139163 -0.007469909 -0.4527829 0.4403664 -0.3989784 1.772367 -1.765969 1.05863 0.6633483 0.7532495 -0.5137066 0.636083 -0.174557 1.227828 0.8558222 0.6569367 0.6646979 0.508513 1.377334 0.8220419 1.105828 0.8618179 0.8243939 0.8985966 1.027007 0.8890518 1.160069 -1.321735 -11.10507 1 -52
-0.2613928 -0.3841633 -0.06318073 -0.4062306 -0.3815798 0.6358055 -0.7923428 0.101976 -1.326622 0.6165909 -1.006894 0.9536697 -1.15565 0.532191 -0.06070141 -0.4425294 0.4759648 -0.2680576 1.545295 -1.17959 1.130705 0.8313965 0.8009894 -0.4643953 0.5424736 -0.2288698 1.433693 0.8616741 0.8128795 0.5893181 0.4077535 1.36893 0.7647799 1.192642 0.7645044 0.8769814 0.8136699 1.009657 0.8167872 1.101877 -0.7505661 -11.80948 1 -48
-0.7995277 -0.3664898 -0.1133786 -0.3813175 -0.4768111 0.4608643 -0.9814465 -0.2851113 -1.288303 0.4629522 -0.770723 0.1235858 -0.8996904 0.5557169 -0.06401213 -0.3944112 0.375434 -0.1235929 1.076172 -0.6857711 1.124218 0.9844674 0.7476534 -0.3434927 0.5265909 -0.2617486 1.562482 0.864197 0.9686185 0.5196971 0.3021821 1.268264 0.7133731 1.268106 0.7411668 0.9479778 0.740688 0.9940118 0.7808809 1.010338 -0.3883997 -10.4954 1 -44
-1.090273 -0.2513235 -0.3995624 -0.2414491 -0.5214258 0.1182736 -0.950937 -0.6484371 -1.309234 -0.02280198 -0.700366 -0.6177606 -0.7875744 0.6234885 -0.08339597 -0.2220533 0.1273753 0.1335591 0.4247839 -0.3042408 1.061566 1.190637 0.5292872 -0.1467706 0.2626415 -0.209859 1.657311 0.8250015 1.127296 0.3509762 0.2211761 1.05342 0.677534 1.260638 0.7699972 0.9372397 0.6969941 0.9705063 0.7556539 0.9311905 -0.03910979 -8.159937 1 -40
-1.05724 -0.1069895 -0.6171784 -0.07629152 -0.4807821 -0.06799766 -0.6859606 -1.050637 -1.260055 -0.5947565 -0.579769 -1.211559 -0.5974707 0.6550734 -0.1816843 0.02876479 -0.1862808 0.4658928 -0.3618512 0.03589393 0.9024431 1.377348 0.2123014 0.03491731 -0.2120898 -0.3369671 1.674881 0.6535946 1.173417 0.01967428 0.03651062 0.6129093 0.5437815 1.064655 0.6622744 0.7073846 0.5720321 0.8359091 0.5947973 0.780167 0.4564867 -4.435484 1 -36
-0.5629358 -0.01567956 -0.6043156 0.02192 -0.3606819 -0.05200372 -0.3803486 -1.463801 -1.196991 -0.971989 -0.3349901 -1.802661 -0.2787453 0.6092852 -0.2975239 0.2535909 -0.4389858 0.7711403 -1.089699 0.1984848 0.70202 1.484452 -0.02571485 0.1079845 -0.5278441 -0.7855549 1.617425 0.4168865 1.069398 -0.2322639 -0.329017 0.1532929 0.2531275 0.765844 0.3598716 0.4740614 0.2887958 0.6594705 0.275042 0.5864996 0.893115 -0.2099974 1 -32
0.432725 -0.03510135 -0.4228008 -0.01070088 -0.2518623 -0.2214002 -0.2022328 -1.776624 -1.015756 -1.142856 -0.09846384 -2.290294 0.02022541 0.5573128 -0.3658451 0.4248528 -0.583989 1.010449 -1.585073 0.1241533 0.5335988 1.51572 -0.1483993 0.05491538 -0.6403136 -1.160283 1.502535 0.2119966 0.9079083 -0.2926772 -0.7040627 -0.1187201 -0.0807134 0.4879228 0.01562073 0.4256315 -0.05121584 0.5205984 -0.07447026 0.4240888 1.285237 2.818335 1 -28
1.352974 -0.1210551 -0.2783837 -0.1148055 -0.1624565 -0.6653287 -0.03739855 -1.864723 -0.5984671 -1.118246 0.06514475 -2.322374 0.1947189 0.571529 -0.3536457 0.6176902 -0.6009796 1.210582 -1.785795 0.02525891 0.377628 1.465971 -0.2302509 -0.09464989 -0.8202005 -1.191852 1.309384 0.03046827 0.7413423 -0.381377 -0.9201389 -0.3126121 -0.3217761 0.2569968 -0.2451169 0.3897243 -0.3046523 0.3485367 -0.3625011 0.2494942 1.74819 4.253148 1 -24
1.371249 -0.1868253 -0.2564922 -0.1820799 0.02010021 -1.101143 0.2898532 -1.697094 -0.1542207 -0.8644874 0.1730252 -1.620919 0.2490636 0.6733894 -0.2298822 0.8897302 -0.4752413 1.412613 -1.476794 0.1107514 0.2364187 1.386703 -0.2475923 -0.2282629 -1.059341 -0.9647914 1.135137 -0.1132011 0.6107638 -0.5357645 -0.9396076 -0.3751613 -0.3898054 0.1273994 -0.36087 0.2897321 -0.3795381 0.1690302 -0.5076091 0.07630258 2.134559 2.990886 1 -20
0.6389906 -0.1907209 -0.2407296 -0.1777801 0.2557186 -1.366074 0.7099735 -1.363633 0.07188442 -0.5752373 0.2616857 -0.3001092 0.284451 0.8069949 -0.04961318 1.178206 -0.309748 1.654999 -0.5372654 0.3194301 0.1526544 1.375014 -0.1857781 -0.2286398 -1.030128 -0.6045366 1.100521 -0.1841791 0.5821814 -0.5835457 -0.8093603 -0.1453286 -0.3491085 0.1364182 -0.3592444 0.2204569 -0.3165288 0.07603503 -0.4999282 -0.02460954 2.244691 -1.638509 1 -16
0.3570087 -0.04460697 -0.1171177 -0.02728228 0.4300609 -1.312803 1.125101 -0.9525632 0.07936174 -0.4857048 0.3315835 1.01413 0.3570327 0.8831754 0.06448733 1.401999 -0.2510336 1.910027 0.5734606 0.3915663 0.0871331 1.442968 -0.1763642 -0.128168 -0.6761991 -0.2880925 1.138678 -0.2367123 0.6251091 -0.6036853 -0.6609558 0.1519397 -0.3888104 0.1702942 -0.3784717 0.07645997 -0.312717 0.02831353 -0.4896518 -0.07030385 1.999959 -7.038643 1 -12
0.9207535 0.2523688 0.05998686 0.2689682 0.5673192 -0.8539134 1.570449 -0.6135999 0.04769291 -0.6382673 0.3123577 1.617931 0.3990249 0.8912275 0.124023 1.55439 -0.3500014 2.01545 0.9801371 0.1134838 -0.05497183 1.484085 -0.3899921 -0.1001373 -0.5391678 -0.143897 1.107657 -0.3786662 0.6172951 -0.8470257 -0.6334107 0.06839713 -0.564795 0.1009034 -0.4858733 -0.2823896 -0.4791582 -0.07148652 -0.6053315 -0.1041137 1.636311 -8.573966 1 -8
1.717329 0.539531 0.1716538 0.5509768 0.7274881 -0.1378512 2.005259 -0.4606869 0.08905888 -0.8517314 0.1633787 1.423273 0.3131341 0.9102964 0.3112978 1.656209 -0.4940398 1.892538 0.4387227 -0.4155091 -0.2644852 1.439564 -0.7855728 -0.2481442 -0.964842 -0.1398508 0.9954361 -0.6236188 0.5123976 -1.310703 -0.776639 -0.4621094 -0.7977157 -0.04282384 -0.6740034 -0.7672403 -0.7467582 -0.2471729 -0.8366234 -0.106741 1.506476 -5.209165 1 -4
2.240599 0.7376295 0.2116399 0.7448128 0.9194693 0.47621 2.283694 -0.3782204 0.1163208 -0.8215582 -0.03085544 0.9050123 0.118521 0.9992253 0.6485987 1.743753 -0.4946566 1.708721 -0.2461189 -0.8723251 -0.4126465 1.390784 -1.093342 -0.4559646 -1.356093 -0.2681068 0.9104202 -0.8452227 0.369764 -1.691855 -1.033139 -1.005334 -1.015411 -0.1660951 -0.9038395 -1.211473 -0.9943445 -0.4268616 -1.065539 -0.05988676 1.546662 -1.222904 1 0
2.102152 0.8053053 0.2349417 0.8127118 1.04182 0.5975481 2.376297 -0.3244416 0.1085072 -0.5627912 -0.09732333 0.4518892 0.01972801 1.114953 0.9139152 1.835325 -0.3273146 1.626334 -0.4278031 -1.00779 -0.4166453 1.382279 -1.153525 -0.5588911 -1.105933 -0.5525708 0.9198306 -0.9490781 0.2262608 -1.79438 -1.289551 -1.244218 -1.159894 -0.226215 -1.066311 -1.51409 -1.139587 -0.5407685 -1.183562 -0.0251796 1.588351 0.5095621 1 4
1.436876 0.6885609 0.254045 0.694315 0.9955618 0.2782965 2.437953 -0.4446424 0.1716722 -0.4133327 0.04355934 0.06365795 0.1447409 1.206071 1.005707 1.931168 -0.1274675 1.627721 -0.3872356 -0.7651675 -0.2998988 1.359362 -1.072005 -0.5491483 -0.6091446 -0.8600778 1.008789 -0.9742574 0.0853888 -1.75097 -1.469448 -1.281087 -1.229544 -0.2221881 -1.132087 -1.626892 -1.198201 -0.5815433 -1.217271 -0.03273192 1.793778 1.017108 1 8
0.8425438 0.455511 0.3026657 0.4527114 0.9267079 -0.01932123 2.615185 -0.630298 0.2656705 -0.4386449 0.2788194 -0.171522 0.3512822 1.313305 1.077574 2.073959 0.001341646 1.631907 -0.4594463 -0.3667221 -0.1322823 1.306571 -1.039945 -0.5214287 -0.5283051 -1.081184 1.139733 -0.9706652 -0.04270739 -1.740148 -1.611726 -1.261517 -1.29395 -0.1785113 -1.209975 -1.565939 -1.248531 -0.5488371 -1.252327 -0.008233244 2.171524 1.115175 1 12
0.6480832 0.3119824 0.4525317 0.2938333 1.0445 -0.0179835 2.897912 -0.5672863 0.3055395 -0.4722481 0.4746715 -0.09927917 0.4926517 1.476371 1.258293 2.253224 0.03146389 1.605125 -0.6351637 0.02160497 -0.01457362 1.254055 -1.193061 -0.5357118 -0.9194559 -1.353847 1.256807 -0.9974691 -0.1944934 -1.848851 -1.848203 -1.300673 -1.484952 -0.1918336 -1.42528 -1.493845 -1.420571 -0.4828444 -1.387996 0.04060667 2.390098 1.37624 1 16
0.7199218 0.3860951 0.6847586 0.3479812 1.266297 0.1285827 3.120622 -0.2142899 0.3170705 -0.6174433 0.5190306 0.0798974 0.4972063 1.662315 1.447081 2.394591 -0.002394405 1.574091 -0.8690118 0.3305099 0.03130618 1.227388 -1.474281 -0.5874832 -1.373831 -1.726171 1.359765 -1.085656 -0.3580425 -2.006712 -2.178183 -1.422788 -1.802066 -0.2788585 -1.724856 -1.501398 -1.712258 -0.4041095 -1.606963 0.0671118 2.314279 2.470799 1 20
0.6863058 0.4831891 0.904392 0.4279313 1.397574 0.2225286 3.128113 0.2449873 0.3037842 -0.8944545 0.2134263 0.2547733 0.1849366 1.823483 1.528986 2.485217 -0.02458693 1.561129 -0.9785795 0.1334105 0.08171277 1.258978 -1.642792 -0.6857533 -1.499975 -2.069926 1.490927 -1.135629 -0.4347169 -1.975808 -2.463787 -1.429159 -2.018251 -0.2788144 -1.887265 -1.41649 -1.891269 -0.2608296 -1.710123 0.1385732 2.036361 3.707461 1 24
0.6857863 0.379251 1.096833 0.3158418 1.475013 0.3300382 3.047776 0.7039273 0.2696211 -0.8913764 -0.3483783 0.4529765 -0.3617627 1.881307 1.559652 2.546478 0.00514309 1.53945 -0.9263716 -0.6706415 0.08688701 1.295033 -1.623949 -0.8851507 -1.391626 -2.365241 1.559159 -1.126335 -0.4266894 -1.824784 -2.664998 -1.345747 -2.029009 -0.1891891 -1.857204 -1.238962 -1.87429 -0.1253073 -1.650929 0.2106635 1.592623 4.78442 1 28
1.132155 0.1314418 1.350076 0.05993639 1.59147 0.5665984 3.144262 1.03953 0.3308025 -0.5299272 -0.6428223 0.5721954 -0.6273876 1.739875 1.569749 2.614781 0.01175556 1.504466 -0.9256248 -1.271876 -0.09673821 1.194757 -1.589839 -1.140463 -1.401266 -2.493031 1.407442 -1.190138 -0.4358774 -1.849869 -2.763858 -1.423916 -1.981189 -0.2056301 -1.810876 -1.221293 -1.816788 -0.1914594 -1.605966 0.1073917 1.194761 5.95229 1 32
1.713977 -0.07357398 1.635471 -0.1556932 1.696986 0.9035816 3.424148 1.059977 0.6015633 -0.2777445 -0.4552526 0.7194182 -0.4109767 1.455379 1.482993 2.752353 -0.1242533 1.511783 -0.9663401 -1.010087 -0.4440991 0.9704792 -1.649546 -1.263584 -1.558995 -2.313367 1.067288 -1.400661 -0.5088263 -2.022629 -2.734202 -1.659813 -2.027121 -0.3873212 -1.889612 -1.398967 -1.834744 -0.5161691 -1.692016 -0.2043441 1.200621 6.783888 1 36
1.842565 -0.08644876 1.777166 -0.1691269 1.745595 1.126588 3.641061 0.8657942 0.9848089 -0.3203624 -0.06913073 0.9057302 -0.006940885 1.227966 1.292333 2.929997 -0.3786025 1.589035 -1.001727 -0.2295942 -0.7952688 0.7753851 -1.745445 -1.176107 -1.700375 -1.971825 0.7219365 -1.700347 -0.6046575 -2.136676 -2.644701 -1.912053 -2.182724 -0.6113466 -2.064167 -1.605698 -1.942726 -0.9453569 -1.868601 -0.5927155 1.525387 7.511349 1 40
1.542952 0.1170642 1.707589 0.04592419 1.816082 1.049204 3.656142 0.7916414 1.203363 -0.3841026 0.2359361 0.8404569 0.311721 1.165565 1.154738 3.050461 -0.5642871 1.695122 -1.038104 0.2783428 -1.035973 0.6674798 -1.760726 -1.033531 -1.622248 -1.58793 0.4822025 -1.930576 -0.687578 -2.031756 -2.589361 -2.027998 -2.390751 -0.7279005 -2.248976 -1.673686 -2.115418 -1.249888 -2.056858 -0.9033212 1.697643 8.15132 1 44
1.137909 0.3800154 1.439142 0.3319654 2.002294 0.8474062 3.621832 0.8751209 1.112533 -0.2402032 0.3190154 0.5501202 0.4082946 1.211431 1.234169 3.078837 -0.5686052 1.752654 -1.010321 0.1552505 -1.15862 0.6131817 -1.694871 -1.034381 -1.255139 -1.258647 0.3472884 -1.982131 -0.7674327 -1.721771 -2.64171 -1.961578 -2.584516 -0.7168843 -2.408247 -1.551918 -2.295168 -1.347214 -2.241146 -1.099668 1.552479 8.569177 1 48
0.6620002 0.4816986 1.092781 0.459955 2.296235 0.8441473 3.708789 0.9339405 0.8528113 0.08527253 0.2447395 0.2852603 0.3354149 1.267878 1.495112 3.016632 -0.4869716 1.695662 -1.061072 -0.2664396 -1.232239 0.5764439 -1.688324 -1.196194 -0.9129379 -1.233889 0.2591963 -1.92993 -0.853829 -1.521192 -2.81548 -2.006499 -2.701623 -0.7092918 -2.523543 -1.484501 -2.429475 -1.430088 -2.41252 -1.284016 1.285231 10.30088 1 52
-0.05748339 0.4683678 0.9474488 0.4567835 2.655778 1.130191 3.897846 1.018983 0.6017202 0.5492986 0.1813465 0.4219376 0.2523842 1.320852 1.849979 2.917294 -0.3428049 1.583337 -0.996918 -0.4878463 -1.263202 0.5688412 -1.693488 -1.362669 -0.7503808 -1.50994 0.1823631 -1.844627 -0.9244406 -1.591182 -3.002983 -2.252212 -2.721348 -0.7684793 -2.572693 -1.729306 -2.503875 -1.657895 -2.52053 -1.497896 0.9841784 12.06323 1 56
-0.9911528 0.5231901 0.9878101 0.5078369 2.978054 1.447769 4.015397 1.187307 0.3979317 1.096748 0.08688855 1.015032 0.1268029 1.424965 2.263109 2.83087 -0.04691616 1.508996 -0.4508171 -0.4154179 -1.213294 0.6093739 -1.531011 -1.421851 -0.5056958 -1.73473 0.1488212 -1.688246 -0.9320641 -1.657062 -3.033863 -2.328197 -2.608581 -0.7878076 -2.498719 -2.093917 -2.463648 -1.867699 -2.514075 -1.621822 0.748888 10.5009 1 60
-1.685989 0.4724161 0.9013612 0.4548762 3.086711 1.376828 3.892485 1.19114 0.2842111 1.485426 -0.07611296 1.344426 -0.0789014 1.535998 2.588147 2.658378 0.2826147 1.398896 0.1792182 -0.1854858 -1.150218 0.6103834 -1.201336 -1.395112 -0.01599713 -1.725269 0.1384005 -1.47208 -0.9001627 -1.478756 -2.865226 -2.104516 -2.349041 -0.6903555 -2.281639 -2.183619 -2.279695 -1.879995 -2.394612 -1.610575 0.7989172 7.323782 1 64
-1.555597 0.06477664 0.7036238 0.04253994 2.950458 1.020619 3.654549 0.9481756 0.2402175 1.534098 -0.179544 1.198925 -0.243773 1.535838 2.673001 2.341435 0.4358271 1.178867 0.4731763 -0.09275705 -1.137436 0.4900803 -0.7941834 -1.384026 0.5654848 -1.725467 0.07524614 -1.252299 -0.9116232 -1.145554 -2.670014 -1.812224 -2.096403 -0.5226896 -2.061811 -1.929512 -2.087403 -1.73768 -2.259441 -1.569066 0.9648653 6.076535 1 68
-0.6405438 -0.5666087 0.7058511 -0.6144056 2.738415 0.9643402 3.566514 0.7998741 0.08114507 1.334765 -0.2072556 1.180868 -0.3422884 1.442835 2.556156 2.027137 0.3929162 0.9360926 0.6360548 -0.5342214 -1.1336 0.3126827 -0.4621388 -1.474634 1.011261 -1.940848 -0.03698843 -1.024332 -0.9662445 -0.7427534 -2.619372 -1.505834 -1.986009 -0.3065582 -1.949031 -1.477392 -1.989829 -1.508172 -2.183864 -1.49008 0.8050048 6.211045 1 72
0.1641832 -1.141313 0.8617817 -1.220906 2.588419 1.202765 3.611078 0.8987354 -0.1531328 1.193317 -0.3027624 1.5588 -0.5007601 1.364772 2.391037 1.849149 0.3095837 0.7301039 0.9917436 -1.363763 -1.092403 0.1869475 -0.290835 -1.596175 1.273957 -1.987656 -0.1223456 -0.7499368 -0.9793114 -0.2115648 -2.580423 -1.00504 -1.860083 0.002372482 -1.812643 -0.9096771 -1.852177 -1.187292 -2.062645 -1.28322 0.4336528 4.653705 1 76
-0.05726689 -1.533657 0.7925357 -1.607587 2.463501 1.161734 3.54739 0.9002495 -0.1652211 1.203701 -0.5877799 1.873378 -0.8058619 1.290699 2.26211 1.760965 0.3267103 0.4792011 1.302298 -1.93722 -1.046515 0.1036849 -0.2178295 -1.627359 1.276996 -1.423437 -0.122974 -0.4777219 -0.9094565 0.3561039 -2.288096 -0.3951836 -1.517868 0.3667385 -1.507935 -0.3002017 -1.523552 -0.8193649 -1.774821 -0.9860375 0.4136914 1.751195 1 80
-1.183539 -1.704811 0.4844236 -1.734366 2.320894 0.7731906 3.312242 0.7006442 0.05280958 1.098507 -0.9426448 1.761909 -1.11197 1.171748 2.183855 1.660291 0.4154778 0.1475171 1.127908 -1.909271 -1.08903 -0.03238656 -0.2490674 -1.613607 0.9526778 -0.5886183 -0.07959184 -0.3338219 -0.8490657 0.7780496 -1.886534 -0.00109122 -1.185135 0.6547529 -1.227211 0.2471691 -1.199575 -0.4978575 -1.486474 -0.7112099 0.712254 1.06061 1 84
-2.066944 -1.63333 0.3218444 -1.621409 2.256101 0.5153875 3.112369 0.7230626 0.2936326 0.8936306 -1.11646 1.730645 -1.203285 1.107239 2.206267 1.564991 0.4829797 -0.1405548 0.8777133 -1.546191 -1.23174 -0.2128269 -0.3366167 -1.636567 0.5800596 -0.02219973 -0.1209594 -0.3288442 -0.8987721 0.9869718 -1.725613 0.1645655 -1.21169 0.8173347 -1.252108 0.6136214 -1.199996 -0.2615234 -1.459223 -0.5466112 0.8310903 1.693889 1 88
-2.076787 -1.443233 0.5062267 -1.420997 2.33223 0.6076344 3.027016 1.089279 0.5327024 0.8573996 -1.141457 2.095734 -1.172727 1.181208 2.333651 1.528178 0.5323902 -0.3031789 1.008956 -1.306147 -1.367447 -0.3496133 -0.3512619 -1.642849 0.3548668 0.2497782 -0.2877764 -0.3481585 -1.007624 0.9164907 -1.766885 0.25559 -1.424 0.9077778 -1.438464 0.7077312 -1.403741 -0.08596104 -1.590544 -0.4494363 0.7800922 0.5733501 1 92
-1.744423 -1.316926 0.8799419 -1.309351 2.445178 0.9098883 2.899714 1.447803 0.7262458 1.008304 -1.134358 2.425445 -1.153657 1.277327 2.458248 1.479086 0.6080644 -0.4260696 1.24797 -1.313609 -1.43611 -0.4553087 -0.2691625 -1.633735 0.2639553 0.2012112 -0.4968276 -0.3338916 -1.110725 0.6414889 -1.883662 0.2831761 -1.49835 0.9618759 -1.517454 0.6034961 -1.504917 0.0803808 -1.641027 -0.301891 0.7503225 -1.117723 1 96
-1.461956 -1.250423 1.117704 -1.250526 2.459906 1.33431 2.68678 1.615293 0.7223071 1.284961 -1.024601 2.4974 -1.038092 1.231564 2.500562 1.316303 0.6858918 -0.6234342 1.370767 -1.390726 -1.516874 -0.6257911 -0.1689306 -1.730419 0.371139 -0.2010482 -0.7307968 -0.3614729 -1.236177 0.4277092 -2.115034 0.2709844 -1.450207 0.9598932 -1.48718 0.500924 -1.471384 0.239183 -1.610087 -0.1504062 0.5695201 -1.267648 1 100
-1.224311 -1.148391 1.011752 -1.128643 2.367042 1.803875 2.46952 1.716898 0.5812521 1.629283 -0.9644667 2.38645 -0.9602836 1.061782 2.497245 1.03925 0.729594 -0.9221423 1.345607 -1.412538 -1.656197 -0.8603154 -0.1527615 -1.908163 0.5273088 -0.5341209 -0.9873298 -0.5091791 -1.360544 0.3681385 -2.335782 0.2710137 -1.303659 0.9013717 -1.343852 0.4990664 -1.32028 0.3601165 -1.483544 -0.0598021 0.1660533 -0.1562874 1 104
-1.284978 -1.091898 0.7247345 -1.040097 2.218616 2.102072 2.237197 1.95206 0.4752786 1.932271 -1.250114 2.337864 -1.246016 0.9448755 2.517742 0.7253485 0.8036003 -1.232635 1.32332 -1.468468 -1.747714 -1.014295 -0.161067 -2.057523 0.6267524 -0.690877 -1.147859 -0.6712471 -1.404106 0.4347762 -2.449552 0.3701209 -1.02282 0.8856229 -1.0612 0.6073202 -1.044582 0.5141488 -1.180933 0.1036033 -0.3232418 0.7538478 1 108
-1.532783 -1.237448 0.5559542 -1.164959 2.016784 2.019156 2.009282 2.27586 0.3803842 2.122487 -1.611029 2.548544 -1.618255 0.9082522 2.552843 0.4772996 0.9278198 -1.361649 1.557158 -1.510325 -1.754832 -1.014684 -0.09161126 -2.139123 0.8659129 -1.085479 -1.186196 -0.7276325 -1.354057 0.601655 -2.548138 0.6372976 -0.7101783 0.9597222 -0.7507588 0.8142132 -0.7468174 0.7517723 -0.8012936 0.4100995 -0.7990316 0.353755 1 112
-1.570086 -1.538878 0.5206624 -1.461827 1.790382 1.458147 1.956129 2.316644 0.2030786 2.065402 -1.437635 2.61834 -1.450269 0.7893066 2.505088 0.3861419 0.9640585 -1.150162 1.84364 -1.117831 -1.792567 -0.9431412 -0.01418972 -1.994247 1.19436 -1.53451 -1.22523 -0.740165 -1.24201 0.74748 -2.513885 0.9662269 -0.4712717 1.043848 -0.5136549 1.023409 -0.5072919 0.9828956 -0.4920832 0.7193817 -1.081211 -1.302639 1 116
-1.543419 -1.882418 0.4504606 -1.80904 1.579839 0.6250542 2.143471 1.947953 -0.05650598 1.737767 -0.7939898 2.393674 -0.8357353 0.5133186 2.322041 0.3906083 0.8627672 -0.7344015 2.002613 -0.3864503 -1.892392 -0.8947477 0.06841452 -1.580001 1.441433 -1.542562 -1.300741 -0.7341907 -1.104909 0.8631271 -2.157587 1.287864 -0.2779577 1.13552 -0.312275 1.207794 -0.2791282 1.187936 -0.2332712 0.9741308 -1.200489 -3.583621 1 120
-1.503373 -2.313397 0.290855 -2.249001 1.311101 0.02133885 2.377903 1.396825 -0.3050503 1.254148 -0.30687 2.197279 -0.3822572 0.1158709 2.04959 0.2833692 0.6690984 -0.5045743 2.031796 -0.1582717 -1.997841 -0.9735613 0.1482942 -1.26567 1.570615 -1.176765 -1.384736 -0.6782696 -1.00435 1.057824 -1.624294 1.609324 -0.01055804 1.298501 -0.031812 1.481632 0.02816686 1.47061 0.08813386 1.266068 -1.373998 -4.773685 1 124
-1.344163 -2.893598 0.1403737 -2.84563 0.9344051 -0.1881322 2.430431 0.7989467 -0.3852579 0.679023 -0.2524917 1.999647 -0.3055982 -0.2908919 1.754054 0.01996816 0.4141854 -0.6193282 1.771067 -0.6944779 -2.083631 -1.200276 0.06567652 -1.281273 1.475884 -0.6957464 -1.451347 -0.598381 -0.9436284 1.313561 -1.140098 1.905153 0.4180872 1.535414 0.3797926 1.889039 0.4511636 1.904483 0.5251874 1.651201 -1.407785 -3.835064 1 128
-1.484804 -3.460186 0.05507182 -3.420673 0.5962046 -0.2724501 2.258773 0.3160825 -0.2742789 0.3344422 -0.5153184 1.798812 -0.5058594 -0.5649844 1.516727 -0.2435544 0.2509496 -0.8928449 1.446693 -1.494408 -2.116755 -1.412175 -0.1153146 -1.427928 1.239707 -0.2294142 -1.442833 -0.4501124 -0.8457727 1.547458 -0.7584952 2.238071 0.9403849 1.825765 0.8358393 2.349123 0.9277966 2.464192 0.9967686 2.105056 -1.170376 -2.94545 1 132
-2.053405 -3.738771 -0.03857065 -3.679221 0.4468806 -0.3137838 2.008316 0.1816209 -0.1423748 0.458351 -0.867332 1.675531 -0.8120935 -0.7114816 1.360144 -0.4070792 0.2639942 -1.160549 1.302294 -2.16082 -2.08064 -1.496838 -0.2454381 -1.549982 0.9995746 0.1538422 -1.378904 -0.2099041 -0.7178639 1.663761 -0.5049912 2.577773 1.374803 2.13207 1.1871 2.742701 1.312003 3.019734 1.366502 2.51277 -1.038556 -3.431068 1 136
-2.409585 -3.662532 -0.1421286 -3.566121 0.4199141 -0.2115751 1.809626 0.389775 -0.09609684 0.7920989 -1.07538 1.471173 -1.010182 -0.814245 1.194125 -0.4822726 0.3133199 -1.390433 1.119824 -2.479264 -2.017276 -1.515655 -0.4132093 -1.662117 0.6800428 0.3963785 -1.33278 -0.02887812 -0.6434549 1.61202 -0.41911 2.775572 1.594295 2.350136 1.370453 2.997572 1.501055 3.449252 1.579276 2.766104 -1.265776 -3.944063 1 140
-2.20744 -3.40733 -0.1844214 -3.286682 0.3905625 -0.0284074 1.552048 0.7310564 -0.07227163 1.063368 -1.14679 1.033621 -1.107489 -0.9252614 0.9655533 -0.5346479 0.2646891 -1.590778 0.6645612 -2.518577 -2.000393 -1.581089 -0.7035964 -1.775685 0.3012977 0.3454992 -1.344475 -0.05834727 -0.6503258 1.496239 -0.5124365 2.75501 1.600924 2.395478 1.412177 3.149365 1.513902 3.694001 1.62798 2.863362 -1.715643 -2.468554 1 144
-1.795517 -3.11733 -0.1235903 -2.995688 0.3243938 0.05717763 0.9158033 1.119729 -0.009291822 1.18574 -1.161234 0.6040186 -1.17287 -1.075811 0.7217541 -0.6480577 0.1093058 -1.776461 0.02533451 -2.594929 -2.060971 -1.735983 -1.060017 -1.903103 -0.0906663 -0.05082674 -1.418476 -0.2372966 -0.7129951 1.421264 -0.7187156 2.567413 1.513742 2.349392 1.37386 3.270214 1.456359 3.780685 1.587561 2.912158 -2.236928 1.400942 1 148
-1.635384 -2.728531 0.05933947 -2.622397 0.164359 -0.1186943 -0.2923731 1.531532 0.168592 1.162517 -0.9751875 0.5562785 -1.033828 -1.270897 0.4592699 -0.8662772 -0.1169054 -1.953108 -0.3542959 -2.542269 -2.150438 -1.92385 -1.322511 -2.00244 -0.3729348 -0.4976233 -1.531209 -0.3924872 -0.7846623 1.449278 -0.8858899 2.479712 1.486622 2.338912 1.351152 3.423525 1.439295 3.836878 1.612985 3.049181 -2.660884 4.465694 1 152
-1.875719 -2.270082 0.2186358 -2.182811 -0.1600164 -0.5928643 -1.74717 1.710127 0.5668102 0.9258806 -0.5636489 0.7072908 -0.657575 -1.55354 0.05285589 -1.173892 -0.4177923 -2.130244 -0.3156614 -2.028837 -2.227394 -2.097064 -1.340202 -1.997603 -0.2675351 -0.7026295 -1.664296 -0.4352924 -0.8293437 1.657532 -0.9693453 2.655772 1.557188 2.376765 1.386038 3.672353 1.485018 3.951814 1.711517 3.254421 -2.722385 5.033 1 156
-2.130611 -1.978189 0.1403489 -1.887284 -0.607142 -1.174274 -2.83239 1.635981 1.051725 0.3918658 -0.2711289 1.025191 -0.4084034 -1.945442 -0.5472784 -1.489954 -0.7734279 -2.311296 0.04731885 -1.368287 -2.293832 -2.241116 -1.091076 -1.902424 0.2500761 -0.746779 -1.769754 -0.3083798 -0.8222926 2.062324 -1.012584 3.020291 1.643971 2.476008 1.435793 4.043725 1.550998 4.140871 1.792092 3.442122 -2.615682 4.37826 1 160
-1.978428 -1.887814 -0.1391368 -1.766383 -1.061064 -1.643319 -3.332705 1.663009 1.371356 -0.3065632 -0.3055544 1.545384 -0.4884887 -2.34299 -1.249878 -1.723828 -1.155155 -2.449112 0.6645957 -0.8047888 -2.353796 -2.320863 -0.7258651 -1.721265 0.9853472 -0.6565885 -1.799569 -0.03871285 -0.7297773 2.577943 -0.9080189 3.509221 1.699838 2.655538 1.503008 4.498138 1.620973 4.354459 1.87012 3.586333 -2.779694 2.564128 1 164
-1.554352 -1.828889 -0.4033057 -1.68269 -1.441755 -2.018439 -3.489369 1.842966 1.485034 -0.9077296 -0.4454397 1.74554 -0.6325926 -2.63273 -1.927765 -1.883779 -1.538284 -2.459209 1.176018 -0.1488654 -2.403404 -2.287244 -0.4847367 -1.393831 1.642541 -0.2288488 -1.752642 0.1677386 -0.5438029 2.985307 -0.5237934 3.963976 1.771662 2.790764 1.660804 4.871696 1.732255 4.466252 2.01531 3.621909 -3.157901 -0.1684167 1 168
-1.297327 -1.750108 -0.5459384 -1.597754 -1.728608 -2.436481 -3.569228 2.009648 1.512591 -1.139801 -0.4467382 1.743651 -0.5806485 -2.792479 -2.419723 -2.033045 -1.79829 -2.320762 1.485759 0.4845759 -2.441625 -2.109812 -0.3866754 -0.9577771 1.91712 0.4007975 -1.66251 0.1934407 -0.2899012 3.102222 0.03752529 4.21968 1.964836 2.749177 1.951054 4.986614 1.949265 4.39521 2.256802 3.531859 -3.457769 -3.128942 1 172
-1.578542 -1.746621 -0.7160096 -1.587607 -1.959524 -2.982529 -3.685841 2.053941 1.606892 -0.9890994 -0.3355515 2.050897 -0.3952822 -2.873213 -2.66779 -2.220677 -1.860484 -2.175224 1.83419 0.7834634 -2.458465 -1.864602 -0.2671884 -0.5774466 1.93845 0.8911662 -1.597083 0.1177287 -0.01736621 3.019696 0.5255647 4.293932 2.333102 2.583337 2.325885 4.875176 2.291458 4.172422 2.550677 3.391161 -3.451396 -5.631582 1 176
-2.383691 -1.855682 -1.076685 -1.674322 -2.170055 -3.537679 -3.84602 1.972052 1.793633 -0.6916581 -0.3191522 2.594269 -0.3282497 -2.90727 -2.771712 -2.457268 -1.770441 -2.184326 2.251076 0.6009536 -2.411793 -1.663846 -0.04885379 -0.4027342 2.058958 1.225803 -1.575261 0.04936461 0.2024165 2.959075 0.8133867 4.271558 2.76545 2.432024 2.667673 4.715148 2.678319 3.882069 2.81703 3.223778 -3.168158 -6.729161 1 180
-3.133962 -1.854152 -1.469657 -1.644108 -2.302327 -3.692901 -3.990944 2.022785 1.887117 -0.3612814 -0.4710742 3.177941 -0.4724656 -2.881846 -2.827509 -2.690829 -1.575029 -2.304523 2.68944 -0.026752 -2.30196 -1.528047 0.2532289 -0.4605913 2.285436 1.492905 -1.589157 0.03007078 0.3019364 2.986388 0.9160265 4.234634 3.080668 2.324865 2.885199 4.591364 2.972379 3.602697 2.994027 3.028299 -3.058693 -7.119641 1 184
-3.170064 -1.509089 -1.620773 -1.285797 -2.276522 -3.196207 -4.037191 2.394349 1.740516 0.04994548 -0.6068369 3.656523 -0.6334479 -2.817748 -2.825165 -2.860739 -1.309329 -2.376933 3.173943 -0.7661697 -2.224534 -1.456669 0.5813898 -0.6559805 2.551185 1.634309 -1.69689 0.03142693 0.2444023 3.014121 0.8302639 4.238958 3.184784 2.183332 2.967129 4.447064 3.081181 3.368183 3.02873 2.831421 -3.439793 -8.467221 1 188
-2.572263 -0.9808178 -1.391444 -0.7686756 -2.067326 -2.237816 -4.011734 2.94861 1.492536 0.6851364 -0.6523446 3.920553 -0.7119246 -2.736132 -2.657773 -2.92858 -0.9738703 -2.344267 3.69823 -1.178767 -2.219977 -1.437146 0.8676898 -0.8615401 2.880505 1.582486 -1.918592 0.0376864 0.05274097 2.971986 0.5738293 4.262762 3.084022 1.992689 2.910649 4.23104 2.989372 3.149116 2.913196 2.603881 -4.080397 -11.11735 1 192
-1.997715 -0.5714315 -1.011994 -0.3773845 -1.811602 -1.306908 -4.080844 3.282196 1.406936 1.322351 -0.6533072 3.617009 -0.7234141 -2.700158 -2.377453 -2.96912 -0.6878448 -2.297848 3.661409 -1.024079 -2.278001 -1.445222 0.9417598 -0.9874895 2.903682 1.400169 -2.160116 -0.01418946 -0.1741005 2.809165 0.2163081 4.047782 2.807801 1.791766 2.669457 3.969001 2.713076 2.897367 2.677181 2.308333 -4.455663 -11.33685 1 196
-1.664476 -0.366296 -0.9457449 -0.1716058 -1.721268 -0.831806 -4.244345 3.0879 1.470267 1.426127 -0.5017701 2.546139 -0.5550982 -2.810903 -2.187554 -3.100986 -0.640048 -2.288838 2.571869 -0.3964564 -2.429879 -1.491861 0.6522561 -1.000524 2.32124 1.225566 -2.323629 -0.1871538 -0.3057156 2.505765 -0.1403603 3.406385 2.462056 1.576122 2.316956 3.68823 2.366334 2.57598 2.388683 2.004466 -4.358691 -5.92736 1 200
-1.4971 -0.3241338 -1.129263 -0.1225521 -1.760822 -0.7453833 -4.249842 2.680079 1.429586 1.122255 -0.1802036 1.303044 -0.2283057 -3.008597 -2.108182 -3.240175 -0.7228689 -2.21313 1.224815 0.1912549 -2.589912 -1.556562 0.2248498 -0.9426165 1.648835 1.048995 -2.38149 -0.3613805 -0.2972853 2.178166 -0.3669028 2.694034 2.249631 1.388522 2.095675 3.425403 2.144732 2.23083 2.200019 1.793258 -4.211662 0.9643402 1 204
-1.725674 -0.4233555 -1.2783 -0.2220842 -1.868658 -0.9125475 -4.077672 2.4612 1.229006 0.9127769 0.2151786 0.5316894 0.1485457 -3.169291 -2.101613 -3.299143 -0.727631 -2.028714 0.5958147 0.3686371 -2.637558 -1.583977 0.02724437 -0.8625166 1.483649 0.8254082 -2.34316 -0.405695 -0.1885554 2.03283 -0.3908913 2.424174 2.267453 1.38234 2.124235 3.35917 2.134382 2.079861 2.218106 1.773427 -4.336858 3.988788 1 208
-2.136948 -0.6575243 -1.4024 -0.440168 -2.100267 -1.350922 -3.974027 2.292096 1.08857 0.8947195 0.72113 0.4897178 0.6516427 -3.333398 -2.221506 -3.361564 -0.6821137 -1.839584 0.7640151 0.6018835 -2.649385 -1.576069 0.06410761 -0.7097199 1.632332 0.7036524 -2.265676 -0.3559112 0.003438918 2.096103 -0.2278814 2.661188 2.426631 1.590201 2.268499 3.569693 2.263911 2.218341 2.369795 1.930505 -4.441846 2.424667 1 212
-2.045526 -0.9693632 -1.439662 -0.7271999 -2.359092 -1.826107 -3.965658 1.927889 1.17555 0.8365454 1.251104 0.6765192 1.195539 -3.57143 -2.432758 -3.437802 -0.7197114 -1.708301 0.9891211 1.17708 -2.750135 -1.573237 0.04835658 -0.4580621 1.578203 0.7693131 -2.218074 -0.3333178 0.2507825 2.148303 -0.005827579 2.944559 2.561061 1.777915 2.350251 3.797656 2.376129 2.410273 2.49023 2.090969 -4.23011 -0.05197959 1 216
-1.35508 -1.29459 -1.300289 -1.05416 -2.546008 -2.230285 -3.940353 1.48402 1.413447 0.5619159 1.609972 0.6316481 1.560623 -3.826643 -2.640875 -3.453805 -0.8807603 -1.589792 0.8093566 1.397893 -2.932949 -1.566138 -0.130328 -0.2134936 1.327338 0.8451223 -2.215326 -0.4157027 0.4767816 2.088186 0.1332225 2.933354 2.580506 1.778669 2.343254 3.840132 2.387854 2.45876 2.500598 2.149963 -3.900194 0.1741723 1 220
-0.32754 -1.525862 -1.100065 -1.297435 -2.676087 -2.644044 -3.903126 1.250683 1.6166 0.3635062 1.866991 0.707653 1.82828 -4.072715 -2.814043 -3.406566 -1.055558 -1.467267 0.6450425 0.9850775 -3.112493 -1.540004 -0.3275385 -0.04532188 1.155541 0.8202431 -2.243604 -0.5820398 0.626682 1.946576 0.1848592 2.768608 2.512155 1.680405 2.289304 3.730159 2.342069 2.413068 2.440208 2.153142 -3.84574 1.660222 1 224
0.6227955 -1.491969 -1.103334 -1.242709 -2.723611 -2.881617 -3.882095 1.20122 1.651368 0.5453618 2.001146 0.6854106 1.976684 -4.298964 -2.886413 -3.311639 -1.118963 -1.391279 0.5511835 0.4594583 -3.190749 -1.48814 -0.4296404 0.05507506 1.06205 0.7700776 -2.246254 -0.7737596 0.7041297 1.711922 0.2118918 2.583987 2.432294 1.592501 2.210848 3.558796 2.297735 2.373537 2.377641 2.154898 -4.064451 2.733429 1 228
0.643824 -1.193286 -1.299071 -0.9003882 -2.58771 -2.805589 -3.86815 1.192031 1.547309 0.9137945 1.757793 0.4465781 1.739514 -4.340511 -2.709177 -3.101195 -1.046989 -1.338712 0.4544774 0.1555854 -3.112413 -1.363301 -0.3909023 0.07411516 1.040797 0.6881173 -2.200164 -0.9199046 0.7327864 1.492234 0.223698 2.441347 2.369086 1.543108 2.134924 3.432867 2.264246 2.352556 2.3192 2.142744 -4.235683 3.310355 1 232
-0.3916751 -0.8139405 -1.266665 -0.4970654 -2.202402 -2.609626 -3.784098 1.408996 1.479181 1.218712 1.279766 0.6930174 1.267161 -4.109279 -2.27639 -2.6857 -0.875255 -1.253381 0.7725586 0.1507845 -2.960345 -1.207102 -0.202483 -0.009839904 1.188809 0.5656733 -2.212049 -0.9460737 0.7025766 1.451731 0.153588 2.484277 2.203017 1.538921 1.990126 3.413039 2.1365 2.310565 2.175503 2.083058 -4.302675 1.938508 1 236
-1.101183 -0.5351185 -0.8703231 -0.2281349 -1.699555 -2.469869 -3.541441 1.870512 1.540037 1.321709 0.9662195 1.288313 0.9606901 -3.781917 -1.816029 -2.147485 -0.7126541 -1.162812 1.301713 0.361537 -2.905481 -1.16599 -0.01010834 -0.2034474 1.394822 0.3748481 -2.374904 -0.9081396 0.563714 1.540166 -0.0794352 2.597895 1.861261 1.491476 1.701275 3.429949 1.829802 2.192712 1.888391 1.942881 -4.320956 -0.3848697 1 240
-0.4587041 -0.4269843 -0.3890847 -0.1535689 -1.324019 -2.329755 -3.22727 2.20034 1.681354 1.120332 0.9056986 1.220096 0.9129376 -3.544299 -1.51582 -1.719264 -0.6507093 -1.096059 1.148645 0.5826699 -2.985967 -1.27745 -0.0150345 -0.4777152 1.3825 -0.08390805 -2.624042 -0.9554898 0.2966318 1.565739 -0.5392917 2.401257 1.369643 1.261366 1.255419 3.366086 1.348557 1.950556 1.442155 1.682551 -4.163031 0.8628225 1 244
0.806461 -0.3937174 0.1103545 -0.1682344 -1.152442 -1.955653 -3.000202 2.330668 1.821741 0.8054704 1.012528 0.465181 1.039612 -3.39227 -1.359227 -1.495388 -0.6088884 -1.053939 0.3059171 0.6874853 -3.061303 -1.42117 -0.1547377 -0.7853833 1.125506 -0.8086326 -2.845192 -1.070152 -0.04662658 1.498886 -1.19233 1.883931 0.716373 0.8924973 0.6385451 3.247267 0.7220452 1.624188 0.837224 1.316941 -3.908345 5.985014 1 248
1.567507 -0.2967144 0.6974952 -0.1293274 -1.073283 -1.237136 -2.856216 2.424132 1.934134 0.6558732 1.23528 0.0683543 1.25901 -3.219719 -1.267942 -1.356562 -0.5119187 -1.034588 -0.2292072 0.7396979 -3.037144 -1.465967 -0.2361659 -1.043977 0.8934401 -1.401806 -3.022588 -1.13199 -0.3587733 1.431601 -1.771104 1.47198 0.1254556 0.5418514 0.08813238 3.117718 0.1855788 1.298643 0.2802769 0.929787 -3.670032 9.406224 1 252
1.51703 -0.1113795 1.133975 0.006259456 -0.9629676 -0.5404326 -2.719939 2.48447 2.014954 0.6732235 1.424723 0.2043965 1.388893 -2.976113 -1.182044 -1.182644 -0.398195 -1.024894 -0.1821013 0.7956543 -2.968139 -1.398856 -0.2552311 -1.198333 0.8465948 -1.635352 -3.174803 -1.154738 -0.5567204 1.431486 -2.047423 1.355495 -0.1325186 0.3043877 -0.1352927 2.993909 -0.04805478 1.043364 -0.02206419 0.6233642 -3.395446 9.16154 1 256
1.175655 0.05744511 1.280031 0.1553091 -0.7345858 -0.2546925 -2.618582 2.677538 1.950542 0.8148072 1.383298 0.2600787 1.252077 -2.701114 -1.027719 -0.9492906 -0.2558929 -1.046341 -0.117764 0.5140987 -2.896486 -1.30285 -0.2686708 -1.378673 0.9186344 -1.8722 -3.281912 -1.20981 -0.7016374 1.555521 -2.167863 1.346567 -0.2432453 0.2046723 -0.2221836 2.995846 -0.1635588 0.8880663 -0.186868 0.4358892 -3.380647 9.116562 1 260
1.271493 0.1276334 1.202668 0.2389613 -0.4224581 -0.3859788 -2.6133 2.966446 1.71115 1.028112 1.129733 -0.0003563382 0.9342493 -2.438036 -0.8122221 -0.6888093 -0.08698045 -1.109423 -0.3398575 -0.2930139 -2.789122 -1.242311 -0.2928551 -1.66779 1.015488 -2.292104 -3.316589 -1.301414 -0.8695478 1.71784 -2.320557 1.21706 -0.3969035 0.1482589 -0.3683448 3.063146 -0.3190935 0.7243528 -0.3287229 0.289083 -3.656495 11.56669 1 264
1.843115 0.1632441 0.7726675 0.3274969 -0.1667586 -0.8911495 -2.686409 2.955067 1.484409 1.207427 0.830137 -0.3719729 0.6399139 -2.18392 -0.6202857 -0.4392539 0.04610365 -1.157101 -0.6927254 -1.154033 -2.646536 -1.218919 -0.3419825 -1.936077 1.051536 -2.522617 -3.263265 -1.397002 -0.9898996 1.727488 -2.425719 0.9269762 -0.4319328 0.04322775 -0.434921 2.980384 -0.3714463 0.4507948 -0.361035 0.127773 -3.652103 14.77924 1 268
2.50115 0.2514849 0.101469 0.4989159 0.0294383 -1.617835 -2.754916 2.676455 1.416988 1.32176 0.6520486 -0.3901345 0.503063 -1.905796 -0.4837576 -0.1640642 0.1036702 -1.168312 -1.004969 -1.534957 -2.514002 -1.199198 -0.4973166 -2.11062 0.7096287 -2.499856 -3.153999 -1.519315 -1.000676 1.462199 -2.424197 0.5329624 -0.3508876 -0.07575665 -0.4151254 2.731653 -0.3267177 0.1121789 -0.331839 -0.02131668 -3.213575 17.07398 1 272
3.090433 0.3698197 -0.3179831 0.6825861 0.2644109 -2.123881 -2.725536 2.400062 1.534512 1.258017 0.673423 0.1067529 0.5734194 -1.588276 -0.4199817 0.2064597 0.02299979 -1.173293 -1.35246 -1.400759 -2.424663 -1.167067 -0.8722012 -2.240591 -0.2125393 -2.459931 -3.075275 -1.719987 -0.9536026 0.9421464 -2.4114 0.006000801 -0.3572539 -0.2154198 -0.4693673 2.369577 -0.3589588 -0.2899368 -0.4126803 -0.2331479 -2.538116 19.01386 1 276
3.476739 0.4542602 -0.2770495 0.7821456 0.5000253 -2.110367 -2.602213 2.081661 1.80869 1.000613 0.7660099 0.6848899 0.7449398 -1.266533 -0.4572411 0.6452911 -0.189809 -1.122878 -1.740358 -1.157601 -2.371754 -1.109004 -1.384314 -2.315578 -1.240447 -2.424865 -3.040666 -1.969338 -0.8875447 0.3565758 -2.437227 -0.5896566 -0.4113161 -0.4289697 -0.5372949 1.909029 -0.4307169 -0.7802598 -0.5684224 -0.5975447 -1.653904 20.89208 1 280
3.371156 0.5573624 0.0710779 0.8539209 0.6720667 -1.71237 -2.458881 1.738354 2.126204 0.7179222 0.8342972 0.7993981 0.8832508 -0.9637569 -0.5364088 1.064141 -0.4035878 -0.9496082 -2.087667 -1.127625 -2.292411 -0.9742345 -1.828023 -2.262303 -1.809346 -2.360029 -2.969576 -2.18876 -0.7716383 -0.1181937 -2.476814 -1.102003 -0.431372 -0.6795603 -0.5516304 1.400864 -0.4769191 -1.280328 -0.7039253 -1.007748 -0.7120354 22.14673 1 284
2.667018 0.7173663 0.5327925 0.9495214 0.8493423 -1.220822 -2.283252 1.502447 2.327896 0.3802832 0.9137304 0.3602249 0.9430764 -0.6195516 -0.5370348 1.436835 -0.540719 -0.7227353 -2.417975 -1.239145 -2.124957 -0.732303 -2.072849 -2.096448 -1.874041 -2.310732 -2.822198 -2.303447 -0.601061 -0.4574261 -2.513934 -1.529374 -0.531012 -0.9052356 -0.6472492 0.8871384 -0.5881026 -1.737972 -0.8759916 -1.355121 0.1086538 23.08442 1 288
1.655998 0.7679015 1.020273 0.9200416 1.119303 -0.8172216 -2.028916 1.261018 2.410352 -0.04386425 0.9751585 -0.1659556 0.9212727 -0.1725323 -0.3636546 1.792487 -0.615161 -0.5376144 -2.665359 -1.216529 -1.882243 -0.4259924 -2.142343 -1.868342 -1.722577 -2.274186 -2.610805 -2.316885 -0.424105 -0.7498941 -2.50463 -1.932032 -0.737742 -1.10899 -0.8620596 0.3837442 -0.7736768 -2.190723 -1.109614 -1.700895 0.9505485 23.78644 1 292
0.7905501 0.6170654 1.639126 0.6761952 1.530261 -0.5765698 -1.733228 0.9893734 2.496469 -0.33824 0.954757 -0.2170968 0.8314976 0.3160962 0.02397628 2.146129 -0.6220216 -0.3717445 -2.658781 -0.986829 -1.623238 -0.1199256 -2.1871 -1.570583 -1.701826 -2.133849 -2.411933 -2.332622 -0.2454802 -1.075489 -2.370318 -2.293521 -0.9076177 -1.335973 -1.03851 -0.1353708 -0.9134412 -2.691385 -1.321362 -2.094711 1.843572 23.15369 1 296
0.2948847 0.4954368 2.351266 0.4570229 2.009674 -0.4373383 -1.459336 0.9313975 2.608156 -0.4141127 0.8296686 0.09369573 0.6797125 0.7268581 0.5260797 2.464081 -0.5544762 -0.1944195 -2.514473 -0.8736496 -1.399431 0.144556 -2.288352 -1.283061 -1.896504 -1.828454 -2.325067 -2.419871 -0.04848808 -1.386677 -2.180096 -2.623534 -1.007511 -1.597493 -1.117642 -0.6761172 -1.00186 -3.236938 -1.477432 -2.494974 2.458884 21.66598 1 300
0.2866941 0.6686994 2.902377 0.5627616 2.439857 -0.07669964 -1.1579 1.268742 2.675076 -0.3850392 0.6215782 0.1980242 0.4842477 1.021139 0.9970354 2.683958 -0.4429578 -0.08294347 -2.539662 -1.081872 -1.26743 0.3058053 -2.396443 -1.162722 -2.075996 -1.519295 -2.374101 -2.574908 0.0706762 -1.637165 -2.18023 -3.032768 -1.241247 -1.890124 -1.29898 -1.213246 -1.246368 -3.80649 -1.690686 -2.945392 2.519078 21.61497 1 304
0.8277404 1.060645 3.184738 0.9359327 2.84609 0.7450691 -0.7867622 1.86433 2.578194 -0.3199153 0.3268188 -0.02271689 0.2154126 1.252985 1.430869 2.792253 -0.2943281 -0.1308932 -2.778965 -1.46773 -1.23794 0.3345982 -2.423659 -1.28341 -2.091186 -1.505166 -2.501412 -2.7118 0.007566712 -1.851598 -2.488252 -3.56082 -1.699855 -2.176086 -1.702989 -1.708753 -1.721492 -4.359274 -2.047066 -3.460966 2.111721 23.81813 1 308
1.674688 1.346517 3.156389 1.24733 3.214644 1.693777 -0.4945019 2.312384 2.230765 -0.1701837 -0.1410259 -0.2852991 -0.2451607 1.479822 1.870859 2.817248 -0.0703821 -0.3217682 -3.041918 -1.903646 -1.163832 0.3193435 -2.271895 -1.604924 -1.989444 -2.01213 -2.552346 -2.663923 -0.172857 -1.989022 -2.993738 -4.047811 -2.188529 -2.297992 -2.171374 -2.037587 -2.220529 -4.715923 -2.44924 -3.834235 1.59447 27.09301 1 312
2.544685 1.329345 2.879826 1.280966 3.438892 2.227358 -0.3585065 2.399285 1.792817 0.2078904 -0.6515896 -0.3218538 -0.759183 1.676487 2.268297 2.739488 0.2523879 -0.5519191 -3.059674 -2.116927 -0.9263451 0.322657 -1.900409 -1.950525 -1.787935 -2.829626 -2.474789 -2.39739 -0.3624463 -2.055067 -3.531725 -4.348795 -2.54986 -2.206267 -2.543019 -2.203507 -2.581845 -4.791951 -2.768498 -3.965829 1.23649 29.39858 1 316
3.165054 1.09272 2.408665 1.099695 3.460501 2.032851 -0.3052528 2.156169 1.470699 0.7229658 -0.8713909 -0.3474721 -0.9573981 1.808044 2.522708 2.510227 0.6182692 -0.7317307 -2.890686 -1.857702 -0.6139255 0.3051486 -1.415369 -2.125459 -1.479673 -3.364057 -2.373866 -2.043684 -0.5283251 -2.112056 -3.916996 -4.501028 -2.734717 -2.039051 -2.749519 -2.344841 -2.760522 -4.722081 -2.945537 -3.959125 1.197013 30.12068 1 320
3.587341 0.8402727 1.624699 0.910315 3.317696 1.230715 -0.3764521 1.776129 1.131307 1.113484 -0.8778301 -0.7030733 -0.9232721 1.900384 2.651713 2.145903 0.9556981 -0.871382 -2.878002 -1.549638 -0.3305668 0.2412105 -0.9562536 -2.173523 -1.198741 -3.403549 -2.281283 -1.659237 -0.6682544 -2.037207 -4.053247 -4.54283 -2.738871 -1.842647 -2.781946 -2.373656 -2.761379 -4.582021 -2.967808 -3.841526 1.29451 30.65286 1 324
4.437308 0.7112315 0.8430929 0.8446422 3.184981 0.5855106 -0.5582731 1.736411 0.6509402 1.486054 -0.9803209 -0.9813343 -1.012553 1.965538 2.820509 1.775676 1.267713 -1.058045 -3.011535 -1.731043 -0.1358457 0.1286584 -0.6109607 -2.319882 -1.205691 -3.353512 -2.252359 -1.303793 -0.8180824 -1.804166 -4.141014 -4.529946 -2.772809 -1.640524 -2.820939 -2.218651 -2.779782 -4.451343 -2.972019 -3.659531 0.9435496 31.74222 1 328
5.471529 0.678476 0.7301455 0.8252344 3.161685 0.59967 -0.7113044 2.153018 0.322487 1.932786 -1.04599 -0.8963354 -1.134091 2.045448 3.083442 1.587429 1.557126 -1.278743 -3.080332 -2.208267 -0.05531975 0.01526342 -0.4227892 -2.62273 -1.444771 -3.587567 -2.319091 -1.115248 -0.972751 -1.609129 -4.404662 -4.523744 -3.007844 -1.528249 -3.019984 -2.027758 -2.9848 -4.416599 -3.110092 -3.497597 0.2732714 32.58883 1 332
5.254541 0.5522545 1.284295 0.6416348 3.131075 0.8279364 -0.86474 2.389083 0.4398591 2.20405 -0.9411373 -0.8758191 -1.125563 2.224474 3.300336 1.670315 1.775037 -1.365316 -3.016916 -2.458299 -0.008084134 0.02562015 -0.3846048 -2.877687 -1.522527 -3.826405 -2.301926 -1.064955 -1.008027 -1.445513 -4.627986 -4.349631 -3.13705 -1.460857 -3.128102 -1.811021 -3.101546 -4.350346 -3.189778 -3.315344 0.2965784 31.54205 1 336
3.401837 0.3068444 1.876339 0.3264731 3.050614 0.85783 -1.057324 2.184891 0.8240619 2.334183 -0.9865132 -0.9791996 -1.20919 2.486128 3.442003 1.939344 1.912037 -1.214232 -2.798334 -2.342087 0.04492324 0.1657971 -0.4730423 -2.927037 -1.383312 -3.685874 -2.146064 -1.012739 -0.8768795 -1.177218 -4.536793 -3.902806 -2.93742 -1.321962 -2.940199 -1.501616 -2.901194 -4.134649 -3.028376 -3.077154 1.115717 28.28217 1 340
1.420887 0.1641562 2.229667 0.1494154 3.04078 0.8277765 -1.130328 2.066648 1.095076 2.480686 -1.23635 -0.7366987 -1.427021 2.691216 3.642989 2.231251 2.001154 -0.9281655 -2.344149 -2.086668 0.02246941 0.2862528 -0.5943689 -2.836101 -1.211232 -3.411719 -2.061558 -0.9424558 -0.7075485 -0.8188219 -4.307328 -3.338141 -2.738597 -1.099402 -2.723779 -1.144443 -2.698808 -3.84886 -2.853788 -2.824885 1.682927 24.01782 1 344
0.5719535 0.1368678 2.459705 0.1058379 3.086253 0.8345066 -1.026333 2.152788 1.18441 2.43132 -1.308694 -0.1296873 -1.474815 2.710361 3.859588 2.41256 1.986905 -0.682982 -1.729896 -1.906064 -0.1197704 0.2990277 -0.6737718 -2.695683 -1.051532 -3.142956 -2.137728 -0.9182651 -0.5919361 -0.5059053 -4.065949 -2.801025 -2.652807 -0.8684474 -2.602181 -0.822641 -2.636427 -3.607904 -2.748586 -2.595454 1.697577 19.5678 1 348
0.6367618 0.03508332 2.559661 -0.02036937 3.01675 0.8485956 -0.8856434 2.117176 1.220121 2.042073 -1.108413 0.2546683 -1.282566 2.517503 3.879367 2.414367 1.751776 -0.6039435 -1.424566 -1.936443 -0.3758095 0.1849266 -0.7791358 -2.572277 -0.9483693 -2.811275 -2.30466 -1.013628 -0.5605561 -0.3629991 -3.72034 -2.496284 -2.460821 -0.8116748 -2.414683 -0.6552773 -2.481463 -3.481762 -2.556467 -2.440654 1.612443 17.41882 1 352
0.936043 -0.1322905 2.489088 -0.2124987 2.803576 0.9412861 -0.7634089 1.96654 1.232304 1.47013 -0.8866562 0.2630816 -1.058967 2.182131 3.681257 2.27222 1.344197 -0.6975769 -1.631289 -2.263389 -0.72441 -0.03149349 -0.9550091 -2.556479 -0.9104725 -2.73577 -2.526103 -1.240466 -0.6424342 -0.3425361 -3.412511 -2.525318 -2.228796 -1.009695 -2.2249 -0.6467469 -2.253943 -3.447289 -2.358302 -2.345193 1.508092 19.67407 1 356
1.144204 -0.1977202 2.285088 -0.2737592 2.603417 1.081001 -0.5799001 1.871904 1.196532 0.9686556 -0.7897294 0.4897544 -0.9096691 1.868059 3.450847 2.127569 1.009526 -0.824492 -1.810908 -2.697958 -1.053786 -0.2506927 -1.113858 -2.629358 -0.8848044 -3.001793 -2.724495 -1.460908 -0.7625303 -0.3339974 -3.29429 -2.633856 -2.101564 -1.275583 -2.149759 -0.6725422 -2.109089 -3.424964 -2.274745 -2.216856 1.338091 23.01901 1 360
1.508144 -0.07735547 2.034586 -0.1183932 2.543417 1.17811 -0.2760085 1.865922 1.143915 0.7296493 -0.6850903 1.128126 -0.7228542 1.694243 3.330063 2.084805 0.8775651 -0.8865432 -1.611825 -2.824372 -1.286937 -0.4410178 -1.177026 -2.732553 -0.8806356 -3.228034 -2.884018 -1.602855 -0.8675369 -0.3989849 -3.276746 -2.672795 -2.114117 -1.473126 -2.188678 -0.7358034 -2.109549 -3.441054 -2.310922 -2.120968 1.166898 23.86035 1 364
2.207232 0.09310922 1.842928 0.08551916 2.577474 1.283544 0.04664716 1.745706 1.193621 0.7582388 -0.4684156 1.483737 -0.4425175 1.571897 3.309444 2.076248 0.8508747 -0.9527559 -1.391997 -2.503324 -1.486316 -0.6449924 -1.136786 -2.840531 -0.8412014 -3.137631 -3.136069 -1.754419 -1.030112 -0.5529524 -3.223573 -2.73984 -2.210642 -1.617786 -2.280337 -0.8659556 -2.218015 -3.536375 -2.429107 -2.177158 1.142083 23.35046 1 368
2.922788 0.1269204 1.732176 0.1383282 2.601171 1.470887 0.2051301 1.508571 1.329683 0.9997956 -0.3754366 1.184987 -0.307507 1.404216 3.33012 1.996835 0.8610992 -1.128155 -1.368605 -2.200831 -1.686873 -0.8692183 -0.9410265 -2.950486 -0.5689066 -2.884236 -3.47533 -1.900493 -1.263909 -0.5833816 -3.153197 -2.793041 -2.270685 -1.684923 -2.336075 -0.9280676 -2.306362 -3.612726 -2.541041 -2.292825 1.20848 23.40211 1 372
3.545638 0.07132459 1.629725 0.1051919 2.635081 1.686573 0.2155108 1.510044 1.417635 1.369122 -0.5798855 0.7909786 -0.4913661 1.26274 3.384163 1.89989 0.8971868 -1.383232 -1.345243 -2.38833 -1.84769 -1.059833 -0.6271117 -3.109035 -0.1664991 -2.754694 -3.734364 -1.945914 -1.469614 -0.4313267 -3.181988 -2.736655 -2.323462 -1.657522 -2.409019 -0.8163564 -2.376853 -3.566042 -2.635808 -2.328402 1.092263 23.85328 1 376
3.85266 -0.004485325 1.410915 0.06526028 2.675285 1.707088 0.2200592 1.645681 1.523981 1.62493 -0.814299 0.5589999 -0.7509569 1.193506 3.414977 1.857935 0.8929348 -1.569214 -1.366767 -2.655666 -1.964616 -1.137702 -0.444461 -3.215896 -0.02012071 -2.675278 -3.829318 -1.924075 -1.551569 -0.2635734 -3.214846 -2.573907 -2.317377 -1.587 -2.47666 -0.53162 -2.406224 -3.395692 -2.668477 -2.281718 1.04859 23.94869 1 380
3.482688 -0.08134298 1.216361 0.01393265 2.6369 1.467955 0.2270933 1.772863 1.687815 1.688017 -0.8346153 0.3195783 -0.8450524 1.13458 3.398679 1.857951 0.8620661 -1.588748 -1.429808 -2.408517 -2.043514 -1.095233 -0.4951311 -3.109259 -0.06349936 -2.489515 -3.8109 -1.904055 -1.489941 -0.1192772 -3.107569 -2.276096 -2.208357 -1.52369 -2.428048 -0.1144471 -2.330273 -3.163114 -2.578162 -2.214063 1.114612 22.87106 1 384
2.85874 0.02363732 1.370674 0.1015158 2.564172 1.258057 0.1346105 2.174436 1.796146 1.809575 -0.72547 0.3048853 -0.84114 1.074022 3.420861 1.906334 0.8843603 -1.463336 -1.279172 -1.952858 -2.053594 -0.9799383 -0.6535832 -2.846823 -0.0962038 -2.22946 -3.76041 -1.904239 -1.3465 -0.07611804 -2.91642 -1.966617 -2.152206 -1.550733 -2.307651 0.1760087 -2.228482 -3.027519 -2.459869 -2.19259 0.7866041 20.36632 1 388
2.486465 0.3363824 1.710419 0.3745743 2.500405 1.255157 -0.06452192 2.619336 1.890493 2.00422 -0.5674718 0.5697377 -0.7682114 1.02659 3.427725 1.989038 0.9232983 -1.281996 -1.146746 -1.858363 -2.027572 -0.8457097 -0.8880039 -2.603748 -0.3462399 -2.048889 -3.709468 -1.97116 -1.218999 -0.3245476 -2.747818 -1.966321 -2.132704 -1.737017 -2.177852 0.0963539 -2.130973 -3.124299 -2.40051 -2.274453 0.3596562 18.79366 1 392
2.360325 0.6382929 1.849002 0.6590017 2.39379 1.317982 -0.2261174 2.712839 2.077776 1.938005 -0.3700818 0.8060507 -0.5862121 0.9529693 3.322777 2.060681 0.890403 -1.08138 -1.402472 -2.090412 -2.052245 -0.7672629 -1.240424 -2.457321 -0.8870263 -2.039545 -3.673826 -2.140961 -1.172801 -0.8024226 -2.665308 -2.337387 -2.106361 -2.011024 -2.110234 -0.1983318 -2.064631 -3.38908 -2.419853 -2.466921 0.3468741 20.4329 1 396
2.367875 0.8009203 1.799998 0.8276081 2.259687 1.343152 -0.2909679 2.593598 2.363056 1.618286 -0.2037212 1.02863 -0.3795444 0.8197269 3.172922 2.067462 0.794795 -0.8331154 -1.801497 -2.198898 -2.140294 -0.7788071 -1.631252 -2.333158 -1.43926 -2.121502 -3.657526 -2.369162 -1.177317 -1.276955 -2.665035 -2.781316 -2.133538 -2.243644 -2.157914 -0.427866 -2.079756 -3.669834 -2.502703 -2.69083 0.5991261 23.52848 1 400
2.184965 0.8147268 1.746524 0.8545141 2.093597 1.353786 -0.3446596 2.403824 2.690206 1.390772 -0.1089675 1.366593 -0.221194 0.6380611 3.018807 1.946579 0.7448076 -0.5663472 -1.850941 -1.918303 -2.197561 -0.7895362 -1.816459 -2.120587 -1.680372 -2.196436 -3.586933 -2.511555 -1.111486 -1.524421 -2.684796 -2.926566 -2.152923 -2.334592 -2.236188 -0.4351876 -2.10791 -3.802718 -2.562039 -2.825711 0.9288757 24.43773 1 404
1.714698 0.7795318 1.799038 0.8219014 1.843235 1.30075 -0.4251577 2.24643 2.983526 1.283433 -0.0249228 1.6373 -0.0850767 0.4429042 2.821401 1.722794 0.7862318 -0.3392966 -1.542471 -1.522817 -2.155943 -0.7126777 -1.67919 -1.821047 -1.499941 -2.179412 -3.438145 -2.487403 -0.9587551 -1.558027 -2.68459 -2.787972 -2.14158 -2.316066 -2.269067 -0.3373292 -2.107326 -3.759649 -2.545811 -2.85706 1.149627 22.90388 1 408
1.714803 0.8206851 1.919395 0.8535967 1.570526 1.189522 -0.4910498 2.312175 3.230232 1.196605 0.1094526 1.789923 0.07000607 0.2324435 2.582411 1.480278 0.8375998 -0.2051311 -1.244884 -1.517328 -2.102064 -0.6462249 -1.432085 -1.579401 -1.19285 -2.060921 -3.338841 -2.441076 -0.8562736 -1.697757 -2.693356 -2.786876 -2.165474 -2.351181 -2.291352 -0.4626223 -2.125978 -3.758205 -2.514837 -2.910803 1.04234 21.9147 1 412
2.906241 0.9095188 1.916437 0.9495176 1.390577 1.115303 -0.4924168 2.568665 3.397465 1.277697 0.2288751 1.918648 0.1875603 -0.01258336 2.35856 1.281449 0.8644629 -0.193831 -1.069577 -1.924888 -2.120575 -0.6975022 -1.233045 -1.509584 -1.013522 -1.886346 -3.381251 -2.45093 -0.8525965 -1.936033 -2.737291 -2.980978 -2.193727 -2.42747 -2.320233 -0.7764862 -2.17492 -3.896342 -2.508758 -3.040218 0.6617461 21.89831 1 416
4.542881 0.8726305 1.707349 0.9420128 1.271535 0.9888002 -0.4748478 2.754076 3.369038 1.501664 0.3221235 1.877911 0.25778 -0.2968384 2.183815 1.122955 0.8960201 -0.2535036 -0.9774115 -2.156234 -2.177672 -0.8329317 -1.028734 -1.532476 -0.8841595 -1.819641 -3.533067 -2.413635 -0.9005844 -1.959216 -2.768505 -3.063133 -2.124654 -2.373102 -2.275825 -0.9191662 -2.162765 -3.999238 -2.460457 -3.122401 0.2070201 21.69251 1 420
5.072429 0.6756244 1.425475 0.773976 1.07941 0.7141292 -0.5434988 2.680888 3.178576 1.619693 0.5293337 1.665897 0.4435683 -0.6034558 2.040863 0.9432395 0.9505654 -0.3037003 -0.9819604 -1.808087 -2.220249 -0.9842503 -0.8011412 -1.490096 -0.7607534 -1.982546 -3.687057 -2.298905 -0.96587 -1.764805 -2.722312 -2.967963 -1.962683 -2.166612 -2.144683 -0.8151253 -2.036192 -3.92138 -2.341606 -3.048303 -0.1209137 21.65058 1 424
4.347929 0.5068457 1.346261 0.6131613 0.7980509 0.4772814 -0.6721736 2.500384 3.019381 1.61521 0.818145 1.519765 0.7510814 -0.8504727 1.965396 0.7510443 1.05572 -0.2814207 -0.9277811 -1.107688 -2.207877 -1.088253 -0.5717049 -1.311853 -0.6852716 -2.180453 -3.711792 -2.116064 -0.9856591 -1.490348 -2.626104 -2.727938 -1.865911 -1.883173 -2.052843 -0.6170328 -1.942563 -3.657651 -2.241052 -2.808506 -0.281248 20.8072 1 428
3.363819 0.4109617 1.618615 0.4967537 0.5554863 0.4511772 -0.7771795 2.39043 2.998778 1.600358 1.049176 1.451667 1.026484 -1.015418 1.982924 0.5933967 1.165476 -0.2176348 -0.729988 -0.4449311 -2.173865 -1.137025 -0.3874951 -1.028451 -0.589572 -2.233614 -3.639294 -1.854551 -0.9401703 -1.159623 -2.5443 -2.347094 -1.913655 -1.595524 -2.069457 -0.3702829 -1.99813 -3.29755 -2.224251 -2.47115 -0.3659782 18.37071 1 432
2.421736 0.3174517 2.050794 0.3704447 0.4859802 0.5396794 -0.8420923 2.263528 3.071187 1.56772 1.257073 1.223855 1.258831 -1.16695 2.046767 0.4704617 1.192626 -0.2168809 -0.6192808 -0.08626039 -2.219457 -1.17768 -0.3581165 -0.7102346 -0.4177323 -2.082119 -3.625168 -1.540262 -0.8957895 -0.8504566 -2.471661 -1.993222 -2.037899 -1.420211 -2.16201 -0.1284603 -2.132838 -2.960136 -2.264773 -2.172422 -0.4032232 16.41729 1 436
1.662802 0.255376 2.434312 0.2817188 0.5782468 0.6528141 -0.8578526 2.219976 3.125179 1.513587 1.416989 0.869379 1.415029 -1.332092 2.13838 0.3663428 1.136974 -0.2917399 -0.6718671 -0.07360791 -2.361628 -1.252088 -0.5135214 -0.4337555 -0.2074403 -1.789291 -3.736298 -1.206423 -0.898876 -0.6479545 -2.424139 -1.772157 -2.22328 -1.369199 -2.31269 0.03847222 -2.29847 -2.644283 -2.33221 -1.943328 -0.587759 16.0764 1 440
1.781539 0.2941653 2.711982 0.3074121 0.7191477 0.9061163 -0.8205371 2.534344 3.164186 1.478535 1.441731 0.7012447 1.430554 -1.569636 2.18345 0.2379782 1.0109 -0.4011078 -0.7630703 -0.2536699 -2.602721 -1.438303 -0.7714681 -0.3158191 -0.0677922 -1.634215 -4.036496 -0.9810706 -1.020749 -0.5862812 -2.481178 -1.673172 -2.452143 -1.379157 -2.503377 0.1303325 -2.499849 -2.335582 -2.434185 -1.751619 -1.14549 16.88503 1 444
2.894618 0.5357808 2.805975 0.5575832 0.8825688 1.386291 -0.7458197 3.133832 3.243067 1.637357 1.408597 0.8464473 1.402059 -1.932774 2.093684 0.06977207 0.8593111 -0.5121942 -0.8223135 -0.5265514 -2.969456 -1.764957 -0.9682787 -0.4398179 -0.06050907 -1.710652 -4.534482 -0.9953936 -1.335993 -0.7049773 -2.655327 -1.780756 -2.645789 -1.500331 -2.68548 0.05274934 -2.700438 -2.200482 -2.591014 -1.735402 -1.986714 18.69616 1 448
4.240271 0.9545481 2.765748 0.9986315 1.059523 1.992839 -0.6901114 3.773753 3.257634 2.220208 1.361203 1.338617 1.369132 -2.313264 1.960049 -0.09838672 0.8417477 -0.608149 -0.5802297 -0.7346127 -3.350746 -2.140894 -0.8960575 -0.7157454 0.03217749 -1.826683 -5.045052 -1.155638 -1.738589 -0.8621611 -2.828462 -2.002066 -2.793656 -1.750819 -2.809547 -0.227111 -2.833575 -2.335397 -2.7649 -1.980242 -2.977238 19.89326 1 452
5.110571 1.318095 2.699923 1.387827 1.17888 2.508813 -0.7167817 4.354736 3.139555 3.069633 1.222213 2.061701 1.223198 -2.554585 1.907775 -0.2422043 1.040269 -0.742038 0.0425844 -0.7555557 -3.590642 -2.47234 -0.582993 -1.009685 0.3379139 -1.931834 -5.399978 -1.293133 -2.047827 -0.8233942 -2.919062 -2.03933 -2.866728 -1.980473 -2.833864 -0.4514042 -2.837803 -2.514415 -2.821605 -2.235044 -3.960845 19.01991 1 456
5.373046 1.467049 2.511559 1.577946 1.199268 2.667797 -0.797953 4.782949 3.026276 3.678764 0.976363 2.549302 0.9355955 -2.626703 1.868554 -0.3676966 1.3167 -0.9415991 0.4986841 -0.648931 -3.674139 -2.693068 -0.3358624 -1.258243 0.4954439 -2.074861 -5.544847 -1.361023 -2.18103 -0.6588644 -2.954883 -1.852125 -2.754951 -2.037392 -2.718136 -0.3897256 -2.688439 -2.459247 -2.664759 -2.183247 -4.598928 17.54125 1 460
5.401641 1.479765 2.132465 1.643272 1.096617 2.366048 -0.8800871 4.990534 3.013296 3.750135 0.7596592 2.517066 0.6542172 -2.640369 1.673316 -0.5055442 1.458633 -1.14364 0.4194268 -0.53281 -3.696651 -2.778659 -0.342134 -1.388735 0.2959521 -2.146766 -5.479581 -1.398301 -2.157965 -0.5244074 -2.931341 -1.605454 -2.482138 -1.946236 -2.488838 -0.1046758 -2.445103 -2.168008 -2.367347 -1.808671 -4.818195 17.12962 1 464
5.808902 1.5075 1.713421 1.716599 0.9269234 1.872009 -0.942729 5.174351 2.937917 3.609383 0.6823408 2.384259 0.5172339 -2.720229 1.335964 -0.6720092 1.419546 -1.28157 0.278167 -0.6022612 -3.737223 -2.788687 -0.4555545 -1.404674 0.1246266 -2.180637 -5.351642 -1.436583 -2.081738 -0.3383941 -2.873375 -1.294399 -2.210832 -1.839122 -2.24007 0.2514181 -2.216185 -1.814414 -2.062719 -1.323601 -5.1345 16.74257 1 468
6.860175 1.527078 1.461798 1.775693 0.803091 1.508026 -1.012089 5.537157 2.65506 3.73683 0.6762699 2.757393 0.5164728 -2.882953 1.038765 -0.8573158 1.348524 -1.338484 0.6873493 -0.8758342 -3.807156 -2.8061 -0.4028163 -1.41338 0.3455051 -2.420946 -5.35523 -1.472093 -2.041862 -0.09243644 -2.87088 -0.8636579 -2.002506 -1.780759 -2.010144 0.5811777 -2.020511 -1.524506 -1.779544 -0.9102201 -5.922203 14.64728 1 472
7.763449 1.316054 1.403288 1.589625 0.6236103 1.152149 -1.193543 5.759204 2.374979 3.91657 0.6800461 3.4019 0.5862092 -3.037649 0.8356407 -1.063265 1.329454 -1.33639 1.423752 -1.097364 -3.857776 -2.826451 -0.1325064 -1.396041 0.8396912 -2.747914 -5.413776 -1.46524 -1.989595 0.07768724 -2.831387 -0.4194375 -1.727086 -1.699923 -1.720176 0.8316163 -1.728125 -1.293235 -1.421442 -0.5564429 -6.567353 11.61716 1 476
7.484233 0.7803924 1.396615 1.039512 0.233882 0.527151 -1.457156 5.38055 2.356566 3.654587 0.7844937 3.528284 0.7205003 -3.086432 0.6515088 -1.246456 1.282293 -1.274815 1.759237 -0.9808736 -3.832822 -2.764948 0.09864278 -1.226628 1.182356 -2.729837 -5.321842 -1.390433 -1.804995 0.140266 -2.568409 -0.09310889 -1.272787 -1.528842 -1.29366 1.000223 -1.249391 -1.056746 -0.9404028 -0.1575494 -6.268236 9.545009 1 480
6.384376 0.2262604 1.408566 0.4342376 -0.2307533 -0.1081407 -1.541633 4.549634 2.541842 3.095827 1.124665 3.046969 1.027513 -3.048193 0.4748962 -1.337372 1.168533 -1.112442 1.500809 -0.3455999 -3.784016 -2.619889 0.02395205 -0.9062212 1.031332 -2.268261 -5.12809 -1.351857 -1.51925 0.06865697 -2.102738 0.04572669 -0.7854735 -1.392362 -0.8350305 1.029696 -0.7504477 -0.8832477 -0.4944893 0.1991591 -5.257636 8.42056 1 484
5.51065 0.01033484 1.444572 0.1658131 -0.5087402 -0.2294402 -1.285002 3.740926 2.693466 2.695296 1.495914 2.479206 1.366019 -3.017544 0.3706375 -1.330609 1.08355 -0.8727022 1.065493 0.4901707 -3.776314 -2.472882 -0.3258865 -0.573988 0.4941221 -1.535426 -4.997786 -1.436888 -1.264391 -0.1317934 -1.519445 0.06226932 -0.3857681 -1.422912 -0.428932 0.9098341 -0.367917 -0.8660178 -0.1839731 0.3751852 -4.331135 6.811965 1 488
4.970869 0.03798905 1.455492 0.1702995 -0.4863036 0.08591475 -0.8788481 3.211416 2.647675 2.558831 1.426819 2.190571 1.311068 -2.96587 0.4365869 -1.205913 1.138129 -0.6740285 0.8173492 0.6636681 -3.74236 -2.315471 -0.6920059 -0.4331615 -0.02767986 -0.7922236 -4.902775 -1.534662 -1.074121 -0.3384501 -0.9440229 0.1161531 0.007657528 -1.515677 -0.0200901 0.834333 -0.001243461 -0.8978185 0.1118343 0.4550469 -3.845469 4.640499 1 492
4.414089 0.008235628 1.522947 0.1489374 -0.2501744 0.3532116 -0.7013824 3.045392 2.447518 2.556477 0.91495 2.290405 0.8612337 -2.785801 0.6947986 -0.9452659 1.345277 -0.5922223 0.766425 -0.2308189 -3.598557 -2.102828 -0.902428 -0.6026509 -0.3730109 -0.5259411 -4.727371 -1.513467 -0.9534985 -0.519248 -0.6735581 0.2061911 0.3663783 -1.50576 0.3125377 0.9313747 0.3471996 -0.831505 0.4239062 0.5622354 -3.672551 3.488221 1 496
4.043825 0.01904137 1.732715 0.1802456 0.03667556 0.5686672 -0.8660859 3.28003 2.233736 2.697674 0.4425552 2.7052 0.4496108 -2.549217 0.9892769 -0.6726878 1.634266 -0.6055782 0.8592511 -1.482095 -3.365459 -1.933323 -0.9373183 -0.9913642 -0.5571368 -0.9863468 -4.560198 -1.397974 -0.9738358 -0.7153231 -0.8799918 0.2090797 0.5135028 -1.436391 0.3918707 1.015989 0.4862019 -0.7157319 0.5748458 0.6343977 -3.75832 3.685731 1 500
4.395761 0.3502542 1.973806 0.5254146 0.2658222 1.025318 -1.170996 3.754946 2.044399 3.045084 0.2868563 3.173335 0.3054144 -2.411929 1.148739 -0.5673207 1.907727 -0.677938 1.088524 -2.197836 -3.132273 -1.931863 -0.8240953 -1.409225 -0.5007181 -1.779323 -4.571942 -1.293339 -1.171971 -0.9072828 -1.403921 0.05514364 0.3169094 -1.455454 0.1578207 0.8327236 0.2993457 -0.6767812 0.4195288 0.5534334 -4.175312 4.333193 1 504
5.696646 0.8381202 2.073727 1.015978 0.3998729 1.674861 -1.456354 4.09793 1.809743 3.284813 0.2626868 3.138693 0.2541219 -2.401867 1.141413 -0.6603261 2.015728 -0.8050647 1.010763 -2.399361 -2.995432 -2.078039 -0.7197571 -1.729875 -0.3632529 -2.436692 -4.721355 -1.251132 -1.458742 -1.098573 -1.931484 -0.3247302 -0.1134496 -1.552022 -0.2364686 0.4261049 -0.08619833 -0.7257364 0.06770173 0.3597235 -4.752884 6.7302 1 508
7.662172 1.088108 1.972289 1.27324 0.4862142 2.275701 -1.60534 4.142944 1.491012 3.160458 0.1244888 2.513862 0.08507881 -2.458172 1.046217 -0.7753678 1.889584 -0.9651827 0.2641146 -2.570409 -2.983336 -2.261729 -0.7938074 -1.976687 -0.5832251 -2.976551 -4.885882 -1.23207 -1.700134 -1.397209 -2.280008 -0.9649342 -0.4944982 -1.609522 -0.5589216 -0.02511107 -0.4311812 -0.819936 -0.250861 0.1869229 -5.232579 12.17018 1 512
9.343815 0.9862099 1.68503 1.202419 0.5507168 2.491659 -1.54234 3.87431 1.212421 2.949654 -0.04713197 1.877022 -0.09543805 -2.453168 0.9703453 -0.7284194 1.703021 -1.043061 -0.6375768 -2.697758 -2.988948 -2.347777 -0.9416206 -2.144672 -1.133947 -3.405581 -4.980216 -1.143497 -1.807978 -1.775838 -2.397619 -1.59856 -0.6584736 -1.555059 -0.7169197 -0.4097026 -0.6022786 -0.8747146 -0.4176791 0.1265582 -5.275146 17.44795 1 516
9.589318 0.6960878 1.304355 0.94943 0.4984075 2.057501 -1.387094 3.235863 1.140747 2.797114 0.04473864 1.313774 0.006504362 -2.298333 0.9287632 -0.5421466 1.608043 -0.931128 -1.093423 -2.345223 -2.926183 -2.268884 -0.9817879 -2.10595 -1.439318 -3.366555 -4.919841 -0.9503644 -1.742069 -1.970963 -2.198639 -1.783622 -0.5734282 -1.37473 -0.6811557 -0.5550638 -0.5605878 -0.7692089 -0.3906351 0.2171813 -4.574237 18.34277 1 520
8.656206 0.35171 1.11218 0.611076 0.3192463 1.242878 -1.26485 2.500594 1.276418 2.586626 0.5618867 0.8855143 0.531319 -2.039884 0.8730364 -0.3325421 1.545725 -0.7060131 -1.049521 -1.485661 -2.853588 -2.111596 -0.9753096 -1.915152 -1.350629 -2.919541 -4.772131 -0.7473376 -1.576815 -1.924953 -1.833453 -1.500251 -0.4066221 -1.15923 -0.5607238 -0.4181797 -0.4282348 -0.5419381 -0.2749862 0.3864377 -3.442511 15.15073 1 524
7.830729 -0.07072158 1.204929 0.1649612 0.1409053 0.4369054 -1.22604 1.951794 1.508672 2.391704 1.256719 0.7127079 1.229535 -1.739202 0.8083029 -0.1377417 1.443499 -0.5185805 -0.9899169 -0.6527612 -2.805129 -1.984756 -1.116277 -1.730329 -1.417518 -2.546159 -4.665235 -0.6487696 -1.424549 -1.868574 -1.606445 -1.203527 -0.3528042 -1.019801 -0.5265106 -0.1969079 -0.3650001 -0.3355643 -0.2460857 0.4997872 -2.342303 12.15607 1 528
7.311875 -0.4612941 1.17299 -0.2426531 -0.01942836 -0.3502311 -1.328268 1.457971 1.739274 2.260033 1.647541 0.2243456 1.606068 -1.439441 0.7952326 0.03355421 1.318976 -0.4137321 -1.440239 -0.2404874 -2.725024 -1.863018 -1.45542 -1.476063 -1.8787 -2.210825 -4.518217 -0.6478174 -1.230952 -1.939099 -1.390599 -1.175552 -0.2499606 -0.9380188 -0.4399075 -0.09298912 -0.2529245 -0.1769494 -0.2096014 0.5671997 -1.305167 11.97756 1 532
6.904488 -0.553881 0.8896564 -0.3391856 -0.1673415 -0.9732883 -1.51992 1.122789 1.896026 2.052827 1.454558 -0.5172396 1.362619 -1.175084 0.9055681 0.1499197 1.236436 -0.3843479 -2.039507 -0.3717602 -2.565239 -1.691065 -1.825713 -1.1118 -2.264222 -1.697196 -4.2585 -0.6442614 -0.9537799 -2.087743 -0.9761611 -1.288199 -0.005819841 -0.8788596 -0.1944487 -0.2049245 -0.03326451 -0.06720781 -0.05296824 0.662315 -0.5602365 12.76589 1 536
7.136419 -0.3032926 0.8436573 -0.1055852 -0.1785814 -0.9714341 -1.670551 1.336104 1.997206 1.774837 0.7822125 -0.5092833 0.6495819 -0.9590078 1.132765 0.2014147 1.2628 -0.4421907 -2.099994 -1.07249 -2.355596 -1.53393 -2.029588 -0.9005865 -2.30918 -1.360299 -4.046131 -0.5933723 -0.7723758 -2.239407 -0.6644596 -1.420197 0.05033467 -0.8862915 -0.09355437 -0.4925774 0.0009372018 -0.07088292 -0.02609093 0.6896729 -0.4813915 12.7305 1 540
7.869837 0.06789699 1.097824 0.243034 -0.06159975 -0.3522406 -1.674522 1.913096 2.089926 1.597881 0.03226367 0.4298373 -0.09481053 -0.7940338 1.378046 0.2046548 1.413975 -0.5560396 -1.674058 -2.060308 -2.165342 -1.443286 -2.036303 -0.9965239 -2.260429 -1.519561 -3.957007 -0.5401676 -0.7840765 -2.394419 -0.7000846 -1.594452 -0.1798958 -0.9692028 -0.2924728 -0.834298 -0.2359402 -0.1734958 -0.2684403 0.5805433 -0.7912825 12.48552 1 544
8.438473 0.3549034 1.276093 0.5189524 0.0570936 0.3892672 -1.455342 2.257271 2.102315 1.505262 -0.4332152 1.264186 -0.5500386 -0.6216595 1.57098 0.2293925 1.588822 -0.6115379 -1.372427 -2.733044 -2.012009 -1.344058 -2.01507 -1.168435 -2.369911 -1.843426 -3.895075 -0.5566154 -0.8465181 -2.59518 -0.8450979 -1.819986 -0.4232837 -1.107021 -0.5516138 -1.175141 -0.4820002 -0.3110761 -0.5397833 0.4499473 -0.9025187 12.5781 1 548
8.927703 0.5564859 1.420945 0.7067171 0.1931631 0.998368 -1.064994 2.220232 2.02301 1.372189 -0.5478025 1.194674 -0.6608903 -0.3752856 1.679163 0.3877092 1.641021 -0.5381624 -1.541361 -2.57536 -1.887545 -1.191291 -2.089885 -1.205829 -2.654982 -1.909789 -3.86648 -0.6343275 -0.8730572 -2.783164 -0.9712067 -2.035101 -0.6705887 -1.270296 -0.7835691 -1.440057 -0.709731 -0.4662852 -0.752685 0.3484451 -0.66734 12.49729 1 552
9.279679 0.7111849 1.607435 0.8472636 0.3061525 1.26095 -0.7098601 2.015056 1.96181 1.170801 -0.3952387 0.4682792 -0.4793944 -0.05921488 1.676894 0.6865771 1.576543 -0.3690141 -1.956787 -1.763419 -1.739033 -1.010238 -2.141139 -1.162198 -2.907492 -1.747806 -3.847796 -0.6260157 -0.8795599 -2.826112 -1.209693 -2.12996 -1.055888 -1.353778 -1.083246 -1.47346 -1.038701 -0.5681438 -1.00489 0.2538194 -0.2270505 11.94265 1 556
9.036335 0.7162623 1.654432 0.8503319 0.2642744 0.8563491 -0.5834598 1.673636 1.967519 0.8490625 -0.1135125 -0.3421301 -0.135936 0.3119715 1.621165 1.032926 1.500964 -0.1457126 -2.3681 -1.141964 -1.470022 -0.7989574 -2.073109 -1.130589 -3.020213 -1.555736 -3.683665 -0.4516487 -0.8424355 -2.730795 -1.487648 -2.108053 -1.431644 -1.28532 -1.377344 -1.284561 -1.350247 -0.5347008 -1.227401 0.2065518 0.4444706 11.68868 1 560
8.359633 0.5412216 1.588438 0.6718565 0.1355183 0.03091002 -0.6646655 1.129174 2.0073 0.3810199 0.1434319 -1.022134 0.1917076 0.7243565 1.595963 1.368197 1.45738 0.0714711 -2.806532 -1.10485 -1.088578 -0.5726559 -1.991981 -1.107122 -3.167487 -1.381082 -3.399892 -0.221155 -0.7558452 -2.638477 -1.589102 -2.119455 -1.590836 -1.145606 -1.521028 -1.116434 -1.487729 -0.4581581 -1.31165 0.1832922 1.409672 12.2719 1 564
7.660225 0.3702979 1.556866 0.488074 0.07946853 -0.4876936 -0.7124735 0.5072569 2.016477 -0.09195361 0.4044538 -1.558465 0.4768749 1.143095 1.61357 1.676619 1.455074 0.2325664 -3.328663 -1.084928 -0.7323692 -0.3689892 -2.007413 -1.032248 -3.526444 -1.340002 -3.197272 -0.07907612 -0.6697448 -2.704886 -1.563479 -2.34122 -1.607177 -1.103279 -1.569255 -1.230873 -1.521088 -0.5474914 -1.352106 0.03402764 2.47696 13.56671 1 568
7.037551 0.3019268 1.63681 0.3995241 0.135933 -0.4973986 -0.5618782 0.06676763 1.912266 -0.3903782 0.7630013 -1.855304 0.8023699 1.564399 1.698876 1.972026 1.488787 0.4053429 -3.794306 -0.7181917 -0.4979198 -0.1645054 -2.133826 -0.891561 -3.999293 -1.587941 -3.092488 -0.07278228 -0.5987892 -2.975406 -1.573172 -2.766091 -1.693227 -1.2234 -1.67404 -1.635738 -1.601871 -0.8420792 -1.478153 -0.2593193 3.294243 15.09929 1 572
6.520409 0.3014103 1.783213 0.3680356 0.2746665 -0.3606219 -0.2506661 -0.1187998 1.654118 -0.4976953 1.149379 -2.130223 1.146948 1.959652 1.856953 2.274697 1.475593 0.654989 -4.212049 -0.3515072 -0.3676921 0.04535019 -2.433302 -0.7312381 -4.447065 -1.867789 -2.965126 -0.1915735 -0.5162327 -3.393783 -1.497262 -3.218148 -1.802532 -1.422279 -1.747486 -2.116439 -1.674423 -1.174933 -1.583144 -0.4964264 3.672523 16.43056 1 576
6.404604 0.4613335 1.743734 0.5153278 0.5023726 -0.2090477 0.1475682 -0.1660509 1.362043 -0.4303896 1.398158 -2.538656 1.372047 2.235953 1.989587 2.559847 1.371536 0.9457228 -4.676372 -0.2114581 -0.3125919 0.2072843 -2.929971 -0.5696483 -4.921465 -1.841991 -2.873629 -0.4199563 -0.4553409 -3.899332 -1.268765 -3.613879 -1.796988 -1.654977 -1.692621 -2.55112 -1.657744 -1.457036 -1.56889 -0.6358975 3.726781 17.40998 1 580
7.036234 0.8142205 1.369716 0.9119036 0.8016211 -0.03413101 0.5357733 -0.1775961 1.186425 -0.2359799 1.461535 -2.613206 1.427909 2.377693 2.035652 2.782476 1.268036 1.239783 -4.980043 -0.208184 -0.2965934 0.3183187 -3.453452 -0.4087211 -5.435298 -1.677483 -2.909663 -0.7189306 -0.4590668 -4.40934 -1.11403 -3.959671 -1.771164 -1.943529 -1.670723 -2.910829 -1.658367 -1.735164 -1.550326 -0.8584962 3.683758 17.93891 1 584
8.083588 1.203096 0.9446484 1.359991 1.067683 0.1164145 0.8242302 -0.262847 1.19196 -0.1162187 1.58119 -2.252837 1.548726 2.442551 2.019558 2.933407 1.195138 1.52922 -5.136106 -0.2041162 -0.2903554 0.3640079 -3.889423 -0.3052493 -5.967209 -1.652538 -3.037686 -1.073471 -0.5334399 -4.929061 -1.121881 -4.363921 -1.853843 -2.310382 -1.807062 -3.263476 -1.770498 -2.078943 -1.659432 -1.249674 3.788201 18.93593 1 588
8.768795 1.529034 0.8190835 1.697238 1.256309 0.2765197 1.051016 -0.4157225 1.391216 -0.139739 1.935431 -1.853156 1.913402 2.448708 1.941129 3.044168 1.103926 1.826715 -5.230713 -0.0593821 -0.3555319 0.3108012 -4.161224 -0.287968 -6.322328 -1.649972 -3.26164 -1.447573 -0.6804711 -5.375519 -1.16197 -4.82445 -2.037631 -2.746569 -2.055152 -3.686513 -1.963588 -2.527483 -1.900983 -1.731889 4.123257 20.44044 1 592
8.738277 1.746419 0.8712446 1.884444 1.362789 0.3267964 1.344122 -0.592547 1.722041 -0.3247075 2.329301 -1.749791 2.325929 2.340006 1.757041 3.119553 0.960363 2.11231 -5.177441 0.4428052 -0.5524588 0.1865673 -4.151124 -0.2474469 -6.133298 -1.380197 -3.580147 -1.753489 -0.8564742 -5.4868 -1.117162 -5.127454 -2.227438 -3.199973 -2.284055 -4.028485 -2.126199 -3.044113 -2.16689 -2.223249 4.555406 21.40557 1 596
8.380451 1.784436 0.9162199 1.876431 1.367153 0.1323427 1.748134 -0.7534341 2.116265 -0.7156239 2.603131 -2.088665 2.620056 2.053967 1.475908 3.113436 0.7549937 2.304917 -5.126228 1.376197 -0.806966 -0.003291297 -3.952931 -0.1050447 -5.473695 -0.9074127 -3.912564 -1.954693 -1.023925 -5.305769 -1.000632 -5.276397 -2.379678 -3.632037 -2.433862 -4.205818 -2.22888 -3.544618 -2.391126 -2.717616 4.891359 22.42555 1 600
8.376601 1.655654 1.094653 1.693363 1.306633 -0.1826648 2.073292 -0.7235236 2.474225 -1.172534 2.867461 -2.44123 2.901624 1.652711 1.205536 2.97226 0.5622294 2.32411 -5.152438 2.269618 -1.011913 -0.2581543 -3.727475 0.03874081 -4.859641 -0.6561362 -4.180947 -2.06855 -1.181355 -5.089081 -0.9370081 -5.407022 -2.542431 -3.995643 -2.580975 -4.295897 -2.367659 -3.920258 -2.577503 -3.168687 4.890149 24.13982 1 604
8.702394 1.469815 1.344199 1.462868 1.186893 -0.4983736 2.119221 -0.5715234 2.727419 -1.585312 3.093223 -2.443629 3.132703 1.282971 1.051016 2.71828 0.4430399 2.159125 -5.175202 2.526489 -1.159489 -0.487657 -3.506357 0.09022795 -4.552449 -0.7312448 -4.308417 -2.105122 -1.289829 -4.880585 -0.9185164 -5.481835 -2.657358 -4.222503 -2.692695 -4.257564 -2.516902 -4.082088 -2.683131 -3.465676 4.620392 26.14326 1 608
8.412515 1.302463 1.275723 1.286772 0.9991753 -0.8399904 1.935369 -0.5618139 2.931291 -1.855872 2.933136 -2.484863 2.967301 1.077779 1.041884 2.467483 0.4096918 1.899083 -5.2779 1.972684 -1.222478 -0.5830339 -3.321722 0.09613468 -4.386567 -0.6856089 -4.242868 -2.021677 -1.313348 -4.62987 -0.759832 -5.433451 -2.566513 -4.255117 -2.623016 -4.028371 -2.497386 -4.020313 -2.627191 -3.518574 4.499054 28.24993 1 612
7.163248 1.161736 0.8979855 1.168549 0.8299592 -1.171267 1.675202 -0.5896127 3.105376 -1.80716 2.421871 -2.700432 2.450571 1.063727 1.146396 2.282943 0.4944839 1.619122 -5.405751 0.9546295 -1.159458 -0.5712014 -3.192133 0.0799678 -4.223005 -0.3494046 -4.084861 -1.830315 -1.33298 -4.315378 -0.5092064 -5.245795 -2.338821 -4.119094 -2.457631 -3.650111 -2.323015 -3.809307 -2.463005 -3.33495 4.595428 29.87264 1 616
5.955696 1.0898 0.8171149 1.109362 0.7863894 -1.26399 1.443191 -0.2828499 3.209539 -1.38771 2.076515 -2.539426 2.112942 1.124499 1.30744 2.161492 0.7099431 1.336317 -5.169033 0.1309402 -1.058412 -0.5859958 -3.015404 -0.03270613 -4.026469 -0.1464813 -4.012317 -1.650013 -1.472588 -3.934145 -0.4763119 -4.891691 -2.29054 -3.921779 -2.462988 -3.211334 -2.278785 -3.555452 -2.408756 -3.063793 4.463443 29.30437 1 620
5.287839 1.133641 1.207606 1.13736 0.831618 -1.008954 1.253967 0.3177837 3.28635 -0.7460446 2.049757 -2.090317 2.106329 1.150721 1.4715 2.061671 0.9695036 1.069421 -4.559003 -0.06274962 -1.000788 -0.6921783 -2.737309 -0.1881133 -3.708925 -0.1728613 -4.032609 -1.512159 -1.692758 -3.563927 -0.6596869 -4.4415 -2.483493 -3.695963 -2.640623 -2.816188 -2.45672 -3.32687 -2.534168 -2.858087 4.000764 26.34613 1 624
4.624707 1.195934 1.491933 1.180763 0.7996088 -0.7366447 1.03687 0.7680229 3.478781 -0.1401912 2.142032 -1.797624 2.207587 1.107286 1.592448 1.879158 1.122012 0.812418 -3.959994 0.3569113 -0.9828243 -0.8792617 -2.477473 -0.2412232 -3.254725 -0.1206837 -4.068857 -1.376502 -1.867683 -3.300368 -0.7735459 -4.102733 -2.635111 -3.468262 -2.77077 -2.610263 -2.633304 -3.194425 -2.670275 -2.802487 3.703516 23.36527 1 628
3.988306 1.218087 1.40574 1.209713 0.6685444 -0.6879429 0.7793607 1.048017 3.747704 0.3367264 2.258002 -1.211681 2.308412 1.000085 1.690998 1.630737 1.158848 0.5678236 -3.309452 0.9653887 -1.026312 -1.103422 -2.306524 -0.2298887 -2.77792 -0.02811451 -4.156609 -1.264819 -1.985038 -3.133067 -0.7507874 -3.928762 -2.687359 -3.325926 -2.847175 -2.610577 -2.726713 -3.192513 -2.744287 -2.900397 3.55885 21.39388 1 632
3.855222 1.352031 1.254097 1.371035 0.5859604 -0.6095155 0.5663444 1.453746 3.800475 0.7333319 2.385072 -0.16313 2.392684 0.8640057 1.808246 1.472071 1.205943 0.4126864 -2.481695 1.254994 -1.125819 -1.279747 -2.128687 -0.2439457 -2.37426 -0.06981161 -4.305765 -1.169077 -2.102415 -2.932397 -0.6952205 -3.735224 -2.864823 -3.246732 -3.022475 -2.548085 -2.88125 -3.233621 -2.894218 -3.038724 3.038795 19.33986 1 636
4.010376 1.597311 1.163871 1.64209 0.5684267 -0.3893384 0.4622599 1.821191 3.580825 0.8939472 2.491531 0.5740933 2.460538 0.7026233 1.849002 1.451425 1.251612 0.3890399 -1.888556 1.229945 -1.240028 -1.378349 -1.929216 -0.2641132 -2.071398 -0.1172331 -4.438339 -1.085124 -2.242878 -2.656295 -0.6006733 -3.532909 -3.134161 -3.168921 -3.235766 -2.347723 -3.063617 -3.276249 -3.12386 -3.164058 2.307397 17.90133 1 640
3.923496 1.801704 0.9576879 1.86413 0.5000751 -0.2309403 0.4820268 1.727598 3.357105 0.6392361 2.644667 0.6029333 2.625677 0.4942743 1.713183 1.493906 1.147906 0.4309914 -1.847486 1.453021 -1.398846 -1.466211 -1.880809 -0.2381272 -1.877973 0.04751326 -4.560027 -1.116955 -2.378459 -2.449676 -0.3974455 -3.543979 -3.241762 -3.160855 -3.284258 -2.309557 -3.085277 -3.421144 -3.262417 -3.360647 2.015673 18.59001 1 644
3.596108 1.996885 0.7538128 2.065149 0.4448055 -0.05899191 0.6267887 1.277418 3.328846 0.2476394 2.995886 0.3024722 3.008264 0.3025377 1.546574 1.589076 0.9218177 0.495898 -2.07364 2.195162 -1.612611 -1.583672 -2.008456 -0.09694616 -1.817259 0.3698919 -4.733875 -1.308673 -2.477782 -2.422941 -0.1663786 -3.743807 -3.211978 -3.298765 -3.217259 -2.526013 -3.026297 -3.721046 -3.335607 -3.706226 2.267731 19.81537 1 648
3.252754 2.208284 0.9381995 2.262516 0.6254671 0.4061629 0.9448213 1.054623 3.458945 0.1994048 3.407099 -0.002461564 3.42004 0.2494142 1.614807 1.81637 0.7907471 0.5829961 -2.268137 2.870262 -1.797665 -1.680075 -2.129783 0.1307695 -1.9525 0.5921916 -4.935991 -1.545013 -2.54493 -2.545071 -0.07920276 -3.96176 -3.285853 -3.519035 -3.281531 -2.801703 -3.142331 -4.051259 -3.491829 -4.163066 2.585773 19.76753 1 652
2.862657 2.244826 1.416992 2.274783 1.026663 1.084827 1.487144 1.148478 3.530611 0.4363011 3.558588 -0.4812081 3.553638 0.3268496 1.899062 2.14436 0.8182476 0.6686072 -2.537729 2.872037 -1.915121 -1.715912 -2.152391 0.2893725 -2.110852 0.5351585 -5.108153 -1.697237 -2.58432 -2.587077 -0.191154 -4.120464 -3.527609 -3.694996 -3.537776 -2.932148 -3.445034 -4.231339 -3.742017 -4.580761 2.679335 20.03482 1 656
2.517686 1.919812 1.808334 1.925756 1.374543 1.62457 2.142402 1.136453 3.464975 0.5255016 3.46861 -1.146031 3.456186 0.404343 2.107263 2.394838 0.8406565 0.7588273 -2.904264 2.430907 -2.017075 -1.714404 -2.10724 0.3528702 -2.020689 0.2248522 -5.233663 -1.759466 -2.575549 -2.388598 -0.4142053 -4.178588 -3.781005 -3.781843 -3.818857 -2.832858 -3.722004 -4.247393 -3.988672 -4.857668 2.747216 21.86342 1 660
2.634412 1.397225 2.107593 1.368725 1.532199 1.862818 2.698659 1.008371 3.447926 0.4408826 3.498635 -1.389032 3.47858 0.3974883 2.137623 2.467407 0.7498338 0.8627602 -3.060493 2.164958 -2.138578 -1.70819 -2.064898 0.4267166 -1.920638 -0.04595467 -5.317462 -1.842254 -2.503127 -2.2556 -0.5593376 -4.183915 -3.89748 -3.836374 -3.968897 -2.711823 -3.839983 -4.252214 -4.138966 -5.024292 2.904855 23.07187 1 664
-1.273839 -0.261698 -1.386821 -0.6040521 0.6476204 -3.222117 0.1355869 0.5475214 -2.270648 0.3859231 -2.398882 0.5732102 -2.079884 0.3042307 -2.397146 0.6392402 -5.004254 0.9206827 0.5589893 -2.314532 1.133363 1.649142 1.278549 1.327975 1.436404 1.258514 3.042836 2.19053 2.379033 1.362066 1.768038 1.477109 0.8438069 1.758598 1.329597 1.412236 1.360823 1.509896 0.5727168 2.070349 -2.703079 -9.957531 2 -168
-1.304637 -0.1263583 -1.430745 -0.5531821 0.9571963 -2.917038 0.1439653 0.6551874 -2.386634 0.8094684 -2.546952 0.982118 -2.256883 0.7548286 -1.814763 0.9527277 -4.264891 0.7830819 0.9983149 -2.49933 1.411972 1.116477 1.381391 0.7239068 1.582056 0.6333278 2.612508 2.289051 1.455731 1.496876 1.142583 1.592446 0.4587307 1.832592 0.6628768 1.487412 0.8867173 1.572035 0.2636833 1.752862 -2.146291 -9.144854 2 -164
-1.349717 -0.07874524 -1.350306 -0.6040271 1.166563 -2.627129 0.1751875 0.8382027 -2.386459 0.9874383 -2.556956 1.144455 -2.284235 1.347988 -1.230545 1.238733 -3.588871 0.5978317 1.171771 -2.520271 1.735923 0.7020541 1.431642 0.06833944 1.649517 -0.05089846 2.160347 2.314214 0.5063093 1.53507 0.5788022 1.6716 0.04990058 1.861559 -0.006276911 1.522868 0.3538222 1.612429 -0.1605762 1.557424 -1.186662 -7.99766 2 -160
-1.115042 0.001452316 -1.076874 -0.5734738 1.41211 -2.224494 0.2615385 0.9373266 -2.367289 0.8467634 -2.486632 0.9532957 -2.238353 2.062499 -0.6485831 1.404638 -3.191468 0.4289338 0.9904442 -2.464454 2.154929 0.4848549 1.40578 -0.6539897 1.594452 -0.7462994 1.901353 2.240556 -0.3526722 1.470651 -0.191954 1.651949 -0.4957868 1.810389 -0.6484318 1.524935 -0.3294247 1.62343 -0.7116156 1.386558 0.1403894 -6.171754 2 -156
-0.6805944 0.1751027 -0.8133765 -0.342661 1.74046 -1.837271 0.4260421 0.8451899 -2.308878 0.386403 -2.373265 0.4301801 -2.16773 2.77062 -0.1471959 1.590614 -3.049608 0.4452469 0.4685353 -2.361562 2.582752 0.4771367 1.295118 -1.256076 1.449712 -1.243875 1.879526 2.137118 -0.9218384 1.334972 -0.9011407 1.533949 -1.043278 1.649742 -1.159221 1.451088 -0.9392768 1.540677 -1.17667 1.107885 1.394163 -4.388375 2 -152
-0.2673726 0.3138106 -0.5849996 0.07551861 2.065217 -1.709585 0.7284601 0.8218396 -2.258111 -0.2573931 -2.316871 -0.2160713 -2.156383 3.404614 0.20698 1.922943 -2.952629 0.6467987 -0.1771532 -2.303595 2.941929 0.6089145 1.14726 -1.607814 1.313232 -1.495062 1.94558 2.113334 -1.153361 1.190027 -1.328468 1.391524 -1.479474 1.433983 -1.52628 1.327425 -1.348841 1.379375 -1.490326 0.6862584 2.203481 -3.238783 2 -148
-0.1122019 0.2857233 -0.4213283 0.4083712 2.242779 -1.869755 1.067988 0.7723526 -2.260932 -0.772846 -2.333034 -0.6794087 -2.216842 3.895498 0.391234 2.280489 -2.781428 0.8845775 -0.6352165 -2.334788 3.233612 0.8348166 1.052353 -1.830958 1.247517 -1.702348 1.928202 2.149946 -1.182153 1.118272 -1.70679 1.304066 -1.84169 1.284891 -1.832711 1.247699 -1.688517 1.252075 -1.750907 0.2619795 2.581815 -1.77314 2 -144
-0.366821 0.1350721 -0.4617447 0.4623844 2.283648 -2.05725 1.321198 0.3088837 -2.376702 -0.9428678 -2.405466 -0.8075962 -2.351316 4.216191 0.4863238 2.537492 -2.582865 1.164518 -0.7652741 -2.480143 3.531654 1.230086 1.041986 -2.016444 1.222167 -1.952015 1.866886 2.174777 -1.07285 1.105272 -2.198668 1.279341 -2.159861 1.232562 -2.046362 1.218075 -2.031376 1.205011 -2.002192 0.04472897 2.850853 0.158766 2 -140
-0.7963474 -0.02149708 -0.6485178 0.4017987 2.328345 -2.057871 1.458097 -0.4500118 -2.551826 -0.8669403 -2.483602 -0.7367013 -2.491716 4.477812 0.6144423 2.700702 -2.444817 1.528776 -0.7094851 -2.651243 3.913962 1.778201 1.019214 -2.126547 1.155911 -2.129697 2.005711 2.246621 -0.8520556 1.051375 -2.744503 1.222537 -2.469315 1.167196 -2.109479 1.13553 -2.356194 1.138458 -2.251688 -0.02440314 3.46922 1.161429 2 -136
-0.9470465 -0.09065264 -0.7348632 0.3993907 2.398341 -1.918112 1.396512 -0.9074856 -2.504729 -0.8472562 -2.382073 -0.7352558 -2.405013 4.712468 0.7555389 2.736025 -2.359498 1.796551 -0.740086 -2.550288 4.338597 2.220675 0.8712592 -2.141822 0.9721205 -2.179605 2.428004 2.438538 -0.6285715 0.8975057 -3.226347 1.021551 -2.739481 0.9933259 -2.045308 0.9400486 -2.57927 0.9595808 -2.436625 -0.1077438 4.306692 0.6236111 2 -132
-0.8264382 -0.1901206 -0.6431773 0.3413575 2.35512 -1.852288 1.091991 -0.6924828 -2.137139 -0.8920782 -2.028893 -0.7804051 -2.02136 4.772416 0.7711087 2.583321 -2.238762 1.766758 -0.8148566 -2.110751 4.635522 2.313699 0.6343424 -2.107656 0.7346268 -2.19624 2.863735 2.663558 -0.4800285 0.6792325 -3.542881 0.7436717 -2.889486 0.776532 -1.939317 0.6965821 -2.66243 0.7357233 -2.517615 -0.1578856 4.514984 0.04805999 2 -128
-0.8371081 -0.4745555 -0.5378168 0.1533551 2.149312 -1.944834 0.693451 -0.2566502 -1.775445 -0.7090421 -1.686052 -0.611385 -1.652275 4.57315 0.6347368 2.298342 -2.11331 1.492577 -0.6457474 -1.727448 4.646566 2.100225 0.478833 -2.061519 0.6218367 -2.24272 3.038835 2.77 -0.3608324 0.533525 -3.681598 0.5879461 -2.885663 0.694498 -1.850757 0.5388309 -2.662026 0.6260654 -2.464256 -0.04562944 3.849908 0.7443499 2 -124
-1.033738 -0.7047161 -0.5329395 -0.03859771 1.935487 -2.011146 0.4028571 -0.3113945 -1.661692 -0.4042601 -1.60113 -0.3298852 -1.542861 4.287941 0.5157791 2.044316 -2.104382 1.253896 -0.3508783 -1.653562 4.457763 1.926883 0.4094611 -1.926717 0.5763268 -2.166795 3.08414 2.771218 -0.1430961 0.4664032 -3.607463 0.5078458 -2.732964 0.720926 -1.682148 0.4483243 -2.538072 0.5827251 -2.193222 0.1333075 3.143798 1.601861 2 -120
-1.135085 -0.65171 -0.5763992 -0.2287526 1.818702 -1.870829 0.232125 -0.8300477 -1.677139 -0.4406844 -1.690403 -0.3687562 -1.583582 4.159245 0.5709827 1.908311 -2.233721 1.250719 -0.3825583 -1.71225 4.315412 2.065169 0.2688501 -1.622593 0.408752 -1.803539 3.289032 2.795302 0.2124527 0.3109855 -3.361144 0.3271096 -2.560931 0.6364866 -1.376035 0.2913223 -2.3035 0.4265637 -1.79733 0.1305652 2.965573 1.823186 2 -116
-0.9215835 -0.4788196 -0.5423083 -0.4104792 1.761986 -1.477024 0.03994469 -1.111918 -1.687271 -0.7669588 -1.759073 -0.7107779 -1.611126 4.162488 0.766184 1.808449 -2.383166 1.340047 -0.7071322 -1.725711 4.20229 2.334936 0.08676577 -1.26261 0.1707483 -1.322865 3.591106 2.802867 0.5263828 0.074072 -3.16536 0.1159196 -2.528527 0.4184051 -1.119102 0.1166285 -2.182522 0.2011719 -1.580831 -0.08910721 2.959199 2.065373 2 -112
-0.4403825 -0.3102156 -0.3733159 -0.4721886 1.719628 -0.9280047 -0.1564663 -0.8525975 -1.625587 -0.9290071 -1.683331 -0.9161225 -1.533395 4.0417 0.9172127 1.668529 -2.389655 1.272803 -0.8916442 -1.634619 3.886444 2.386824 0.008158034 -1.070194 0.04421689 -1.052005 3.681912 2.662251 0.6267607 -0.06194485 -3.081512 0.0395898 -2.585165 0.2472875 -1.085636 0.08342819 -2.265909 0.08475306 -1.69534 -0.3468545 2.60253 2.406904 2 -108
-0.09755072 -0.201659 -0.165408 -0.5470538 1.601908 -0.4470696 -0.3407038 -0.5144003 -1.416061 -0.8483854 -1.440661 -0.8606164 -1.28494 3.660155 0.876125 1.454784 -2.192384 1.010194 -0.8450577 -1.392435 3.347921 2.185292 0.01233338 -1.109811 0.04991537 -1.066063 3.451212 2.408262 0.6266345 -0.04820362 -2.867765 0.08648959 -2.509351 0.1942396 -1.124571 0.1679841 -2.290509 0.0947127 -1.874945 -0.5053115 1.888948 2.873257 2 -104
-0.120769 -0.278752 -0.07834955 -0.7035453 1.369461 -0.2285137 -0.6062649 -0.4602648 -1.098143 -0.8693369 -1.107731 -0.8629997 -0.9228184 3.162854 0.6824215 1.122616 -1.945702 0.7283942 -0.8928705 -1.054827 2.75967 2.044711 -0.1080446 -1.074 -0.05101186 -1.028135 3.114668 2.132882 0.8443928 -0.1092694 -2.217489 0.02745446 -2.112167 0.08589384 -0.8478156 0.1215225 -1.90136 0.008348173 -1.683562 -0.5400085 1.241149 3.45662 2 -100
-0.2821266 -0.452594 -0.1703186 -0.7595974 1.141961 -0.2864861 -0.811096 -0.7890611 -0.8783552 -1.225444 -0.8416367 -1.183506 -0.68808 2.719495 0.4486513 0.7247782 -1.93484 0.6392718 -1.276227 -0.8367092 2.199531 2.207162 -0.4130734 -0.58429 -0.358665 -0.5390962 2.914239 1.819852 1.452031 -0.391804 -1.148444 -0.2411612 -1.497416 -0.1779556 -0.113356 -0.1377131 -1.157509 -0.2744055 -1.124804 -0.4581742 1.025911 3.740355 2 -96
-0.4103836 -0.5302501 -0.2471979 -0.7165205 1.031299 -0.3771178 -0.7380704 -1.438302 -0.8392039 -1.684339 -0.7492599 -1.632777 -0.6880774 2.334671 0.2411623 0.4226902 -2.184441 0.7706472 -1.762405 -0.8128941 1.663793 2.550412 -0.7512887 0.2745552 -0.7165751 0.3116309 2.848404 1.403062 2.279099 -0.7707599 -0.01776084 -0.6064593 -0.9401646 -0.5095039 0.7707617 -0.4779176 -0.4252788 -0.6253968 -0.5844254 -0.3155102 1.124941 3.525423 2 -92
-0.4620609 -0.4614551 -0.1336059 -0.5821794 1.00047 -0.3010125 -0.4995229 -1.860596 -0.8433043 -1.894547 -0.7588148 -1.864253 -0.7495146 1.958525 0.1039998 0.3153071 -2.346092 0.9593763 -1.957174 -0.8146558 1.185416 2.785082 -1.013498 1.078852 -0.9999585 1.108434 2.748554 0.893777 2.953251 -1.059795 0.9106627 -0.9410013 -0.5104578 -0.8001839 1.35508 -0.7952337 0.1464486 -0.916798 -0.2531613 -0.2112095 0.9648775 2.562266 2 -88
-0.4606876 -0.3573375 -0.05930388 -0.3786383 0.8331062 -0.2342207 -0.4512995 -1.802152 -0.8120323 -1.743699 -0.7671099 -1.740563 -0.765037 1.498672 -0.04725637 0.2638379 -2.180701 0.9879601 -1.746148 -0.7695233 0.7407293 2.709615 -1.0969 1.564211 -1.066368 1.61522 2.432448 0.3922483 3.195287 -1.097781 1.603547 -1.0556 -0.1354827 -0.8992133 1.476571 -0.9231718 0.5977062 -1.013528 -0.103947 -0.2031583 0.3096386 1.68984 2 -84
-0.6370183 -0.4366999 -0.3142172 -0.4038208 0.3942801 -0.421091 -0.7041682 -1.701769 -0.7201827 -1.306368 -0.7397024 -1.318688 -0.7394522 0.9323187 -0.312357 0.06516016 -1.818236 0.8304284 -1.278055 -0.7258388 0.2890912 2.382552 -1.004196 1.807092 -0.9451823 1.857818 1.924933 0.001748215 3.099296 -0.9774555 2.163602 -0.9482479 0.2817315 -0.8318693 1.488936 -0.8649111 1.065646 -0.9513772 0.08930833 -0.2263862 -0.4963029 2.150067 2 -80
-0.9792146 -0.6924927 -0.7586697 -0.7486473 -0.1158296 -0.6925032 -0.9690829 -1.658059 -0.6143617 -0.8712483 -0.710178 -0.8922325 -0.7158704 0.4206001 -0.5539925 -0.2323919 -1.423729 0.6892901 -0.8764161 -0.7561733 -0.05171102 2.025493 -0.8430858 1.964596 -0.8047071 1.951763 1.501396 -0.1629663 2.923195 -0.8734015 2.589504 -0.7915345 0.7658262 -0.7469779 1.707424 -0.7881232 1.613858 -0.8605263 0.5845987 -0.1490978 -1.279442 2.875475 2 -76
-1.139659 -0.7704511 -1.021512 -1.057871 -0.4648452 -0.674068 -0.9730279 -1.543023 -0.5251088 -0.6357275 -0.6351324 -0.6619774 -0.6701441 0.026213 -0.6279671 -0.4405357 -0.9479239 0.6226164 -0.6814476 -0.763997 -0.2050231 1.646096 -0.6046825 1.973251 -0.6161833 1.90183 1.246376 -0.07925116 2.63043 -0.7025253 2.669335 -0.5923962 1.099844 -0.6143376 1.850324 -0.6518428 1.915713 -0.7080299 1.072519 -0.005810759 -1.996118 2.356655 2 -72
-1.085685 -0.4858748 -0.9719321 -1.037599 -0.6729057 -0.3162464 -0.7758982 -1.442655 -0.2676042 -0.3559731 -0.3579025 -0.3668949 -0.4074959 -0.3955369 -0.6202545 -0.516763 -0.3121066 0.4721825 -0.3957475 -0.4669943 -0.353204 1.0758 -0.258738 1.677345 -0.3250068 1.598069 0.8728752 0.09130344 2.048206 -0.3920311 2.305351 -0.2848401 1.082965 -0.3786725 1.549004 -0.3844562 1.639998 -0.4251904 1.011076 0.1078298 -2.424801 0.9466761 2 -68
-0.9506752 -0.121076 -0.7441711 -0.7922181 -0.8599007 0.1338462 -0.6746935 -1.078006 0.1659395 0.201608 0.0471656 0.21449 0.06997658 -0.8785858 -0.6783764 -0.5526046 0.4008089 0.1638953 0.2059011 0.05889013 -0.6182395 0.3464718 0.008684787 1.168451 -0.09349216 1.106092 0.2317607 0.1799154 1.28158 -0.1258043 1.752296 -0.01606074 0.8729067 -0.1975867 0.9343636 -0.169593 1.061955 -0.1542303 0.6034561 0.09265413 -2.468552 -0.1294958 2 -64
-0.6581615 0.09501345 -0.4846745 -0.508782 -1.020809 0.3894226 -0.6842762 -0.3331034 0.6553944 0.7701005 0.4970753 0.8013153 0.6286425 -1.264464 -0.8344183 -0.5676135 0.9240606 -0.0976944 0.8322495 0.6197839 -0.879925 -0.248216 -0.1332442 0.845636 -0.2316868 0.7939392 -0.4457949 0.09077889 0.6661658 -0.2231052 1.393729 -0.1565025 0.7484785 -0.3700192 0.4472741 -0.324417 0.7121803 -0.2619575 0.4188524 -0.1919805 -2.186309 -0.2235124 2 -60
-0.304435 0.2045466 -0.2431501 -0.2426992 -1.065786 0.2955339 -0.487768 0.2603704 1.234374 0.9499295 1.092016 1.018431 1.259052 -1.494894 -1.018573 -0.5639516 0.9575995 -0.0824106 1.061392 1.270574 -1.110874 -0.5159829 -0.5823214 0.9449404 -0.6552791 0.8865685 -0.9431109 -0.1999925 0.3727616 -0.605324 1.285896 -0.6319416 0.752565 -0.8094693 0.3166878 -0.7496628 0.659478 -0.7006781 0.4606047 -0.5713973 -1.711231 0.006956361 2 -56
-0.03714532 0.2190397 -0.04390635 0.007309133 -1.002179 0.02395515 -0.130751 0.5880197 1.633985 0.8613814 1.539073 0.9568218 1.681305 -1.62352 -1.132983 -0.5862709 0.5388871 0.04655391 0.9914653 1.734866 -1.417747 -0.6457825 -0.8596096 1.176412 -0.889926 1.118621 -1.256571 -0.6101016 0.2346388 -0.8236109 1.261055 -0.9158965 0.8187908 -1.06117 0.3999245 -0.9862266 0.7265987 -0.9776527 0.5538595 -0.7318465 -1.160923 -0.2188067 2 -52
0.2557485 0.2429405 0.06821795 0.341374 -0.8740499 -0.1718455 0.1612689 1.023439 1.621201 0.8924038 1.547501 0.9595017 1.678974 -1.682483 -1.106521 -0.5254911 0.09484804 0.0101963 1.010183 1.756308 -1.78812 -0.9171781 -0.8912617 1.22539 -0.884222 1.208866 -1.520177 -1.04344 0.05096895 -0.8283854 1.329321 -0.9329475 0.9630974 -1.045276 0.4770077 -0.9786499 0.9047258 -1.009846 0.7662104 -0.6919627 -0.7183956 -0.9796379 2 -48
0.5544184 0.3838652 0.1455662 0.721276 -0.7182936 -0.3162298 0.4297154 1.504003 1.536013 1.006986 1.470974 1.046236 1.601623 -1.741837 -0.9421594 -0.3132606 -0.03460468 -0.1715442 1.097294 1.69575 -2.100023 -1.337913 -0.8641732 1.115055 -0.866458 1.158787 -1.893415 -1.43932 -0.2348198 -0.8041711 1.469387 -0.8953665 1.179778 -0.9597019 0.4084583 -0.9206112 1.113508 -0.9743263 1.028917 -0.5610185 -0.6544182 -1.924595 2 -44
0.7588003 0.5020237 0.2604344 0.924318 -0.5946171 -0.4090725 0.5763218 1.808321 1.481308 1.012948 1.464341 1.064929 1.552784 -1.757886 -0.6512464 -0.09732115 0.1039033 -0.3576432 1.08577 1.648937 -2.196984 -1.725469 -0.7597809 0.8549774 -0.7930577 0.9281721 -2.274338 -1.701463 -0.6399976 -0.6992686 1.476505 -0.7892234 1.329888 -0.826515 0.1524616 -0.7916384 1.156741 -0.8222268 1.166934 -0.3433851 -0.901544 -2.178058 2 -40
0.9286754 0.5410084 0.4415312 0.8894308 -0.428593 -0.1619884 0.5309255 1.955569 1.165088 1.006834 1.199646 1.067351 1.229967 -1.557164 -0.2105948 0.0622081 0.3133981 -0.475305 1.083767 1.283727 -1.976352 -1.935907 -0.5086738 0.3003175 -0.5391764 0.3670232 -2.372169 -1.716231 -1.164048 -0.4441166 1.132641 -0.5492887 1.182741 -0.5779937 -0.2269524 -0.5221348 0.8772334 -0.5005243 1.042478 -0.1127278 -0.9874637 -1.633668 2 -36
1.044725 0.594281 0.7129933 0.7554755 -0.1629015 0.3928907 0.5834129 1.946731 0.7445945 1.027333 0.7543467 1.064072 0.7780316 -1.199664 0.2496575 0.1934142 0.4999797 -0.5348226 1.086777 0.7823816 -1.555859 -2.017115 -0.1183513 -0.5264786 -0.1283238 -0.4870695 -2.188389 -1.480444 -1.747662 -0.06506054 0.3630167 -0.1756371 0.7172063 -0.1746179 -0.6469894 -0.1244102 0.2768253 -0.04420328 0.6390839 0.1403086 -0.6419286 -1.326495 2 -32
1.085979 0.6390003 0.934257 0.7203164 0.06679043 0.7141383 0.8877702 1.891733 0.5217911 0.9791986 0.4691183 0.9696198 0.4992923 -0.9218294 0.520118 0.3080939 0.6975257 -0.586439 0.9758594 0.4866495 -1.136636 -2.089602 0.3388075 -1.256293 0.3221516 -1.250186 -1.992304 -1.124447 -2.231206 0.3677315 -0.5670468 0.2678249 0.2485089 0.317711 -1.01215 0.3157446 -0.3246679 0.4568204 0.2370662 0.4492825 -0.1920218 -2.003519 2 -28
1.181549 0.6331797 0.9663587 0.8839988 0.2125951 0.6593897 1.231609 1.939343 0.3460321 0.871222 0.3018847 0.8157585 0.2700692 -0.7367292 0.6541485 0.4232118 1.003237 -0.6608158 0.8190296 0.2441902 -0.7091318 -2.13812 0.8268528 -1.67948 0.7879694 -1.680692 -1.885244 -0.743283 -2.549909 0.8322785 -1.396754 0.7405117 -0.06886835 0.8087694 -1.311408 0.7658789 -0.7249658 0.9114572 -0.03213373 0.6114349 0.02852427 -3.453005 2 -24
1.208513 0.5134621 0.8886082 1.06496 0.3235903 0.6027657 1.34064 1.748696 -0.1144394 0.6999323 -0.05593938 0.6080726 -0.1986974 -0.4677473 0.8406414 0.4326029 1.419094 -0.753365 0.6428934 -0.2436165 -0.1404895 -2.05633 1.375634 -2.012938 1.339197 -1.994712 -1.719113 -0.3038993 -2.828611 1.378579 -2.179773 1.283627 -0.3908233 1.316041 -1.58003 1.286989 -1.075215 1.378701 -0.3310894 0.5984346 0.3892101 -4.234521 2 -20
0.8431757 0.2288857 0.7468817 0.9872649 0.3884874 0.6532387 1.228199 0.9445651 -0.8487974 0.4821536 -0.6461825 0.3577563 -0.8916101 -0.03443081 1.085956 0.256547 1.810177 -0.795257 0.433995 -0.9265918 0.6106272 -1.766638 1.888232 -2.415298 1.901045 -2.39798 -1.344205 0.2203704 -3.109344 1.906516 -3.054607 1.827847 -0.8697218 1.815486 -1.795689 1.807417 -1.556774 1.867898 -0.7743239 0.6397235 1.505098 -3.209929 2 -16
0.2855559 -0.006343798 0.4847857 0.6606654 0.4117057 0.5845075 1.004275 -0.05563355 -1.292603 0.2675816 -1.019854 0.135641 -1.329157 0.4648256 1.251339 0.003395341 2.024249 -0.8183586 0.2153392 -1.290256 1.454019 -1.328719 2.156071 -2.774767 2.241508 -2.78977 -0.7604979 0.7358652 -3.296122 2.189214 -3.97392 2.140201 -1.484132 2.155144 -1.962996 2.112465 -2.152019 2.183826 -1.336572 0.7582274 3.055456 -1.3043 2 -12
-0.134416 -0.05748833 0.07183292 0.2272186 0.4045146 0.2755947 0.5477295 -0.6778442 -1.186474 -0.04014093 -0.9964188 -0.1259975 -1.287698 0.9011077 1.292377 -0.1502357 2.089185 -0.8586472 -0.1279309 -1.135396 2.263183 -0.820798 2.149803 -2.859706 2.261141 -2.903218 -0.03046739 1.145966 -3.248885 2.202112 -4.544549 2.154758 -1.941929 2.258157 -1.989085 2.136025 -2.542772 2.239615 -1.719623 0.8944523 4.038134 -0.1723758 2 -8
-0.4847024 -0.1464304 -0.4504589 -0.2514887 0.4024506 -0.1348861 -0.01594654 -0.7703261 -1.065109 -0.4027869 -0.9972791 -0.4301024 -1.196064 1.337487 1.366229 -0.04742211 2.251419 -0.7285093 -0.5474975 -0.9845833 3.07426 -0.2296225 2.066837 -2.787835 2.112268 -2.841972 0.790139 1.497068 -2.980693 2.117237 -4.605505 2.081882 -2.093166 2.223861 -1.847808 2.044674 -2.608055 2.174227 -1.731326 1.021328 4.136507 -0.3184159 2 -4
-0.7838856 -0.4802816 -0.867981 -0.6817088 0.4500442 -0.4169462 -0.4461808 -0.4925704 -1.25833 -0.4926251 -1.262926 -0.5090764 -1.344646 1.916799 1.598823 0.2373042 2.569737 -0.4542758 -0.6579794 -1.160692 4.015417 0.4154663 2.013398 -2.981486 1.946416 -3.045963 1.62878 1.854421 -2.738737 2.000838 -4.600074 2.033767 -2.245451 2.131662 -1.743788 1.966397 -2.697862 2.071525 -1.717048 0.9497626 4.190073 -0.9094141 2 0
-1.053597 -1.031379 -1.097648 -1.016844 0.4487985 -0.5759398 -0.883395 -0.3468004 -1.596378 -0.3668483 -1.63397 -0.4038296 -1.639135 2.559658 1.849833 0.4109548 2.761399 -0.2447337 -0.4773708 -1.487399 5.031775 1.133592 1.990812 -3.345221 1.849548 -3.441463 2.468498 2.20228 -2.596503 1.893363 -4.823639 2.020395 -2.599716 2.054353 -1.707077 1.942288 -2.995228 1.988697 -1.951931 0.7374239 4.789955 -0.8169069 2 4
-1.371099 -1.620943 -1.439384 -1.331106 0.2434431 -0.860117 -1.438831 -0.3999037 -2.019751 -0.4564674 -2.044262 -0.5136566 -2.047841 3.124837 1.917848 0.3625483 2.752943 -0.05731404 -0.4903297 -1.899229 5.961556 1.92536 2.112575 -3.58126 1.967152 -3.704105 3.345516 2.538093 -2.410874 1.968655 -5.090058 2.19488 -2.944572 2.175854 -1.588756 2.092356 -3.255176 2.112263 -2.160088 0.7526024 5.376786 -0.2008735 2 8
-1.68336 -2.155046 -2.014587 -1.74799 -0.145057 -1.378574 -2.156908 -0.01392471 -2.40963 -0.6943465 -2.476905 -0.7489223 -2.44197 3.650467 1.802325 0.2069058 2.740353 0.027278 -0.6669683 -2.339233 6.692656 2.544012 2.376156 -3.839547 2.275349 -3.961748 4.136239 2.784025 -2.217258 2.242154 -5.162682 2.563083 -3.087331 2.49182 -1.392399 2.395027 -3.266107 2.43796 -2.100067 0.9782689 6.010132 -0.2535193 2 12
-1.921264 -2.619673 -2.518727 -2.327345 -0.5261914 -1.8847 -2.965035 0.7362254 -2.604593 -0.8817688 -2.791555 -0.9188162 -2.657604 4.210306 1.678618 0.0973672 2.8459 -0.06108433 -0.8002329 -2.644945 7.194192 2.888683 2.540024 -4.211607 2.4885 -4.347075 4.621959 2.832772 -2.12167 2.442205 -5.010111 2.80296 -3.086516 2.703573 -1.19887 2.576313 -3.084924 2.666227 -1.937117 1.154379 7.280848 -0.6400601 2 16
-2.065082 -2.883026 -2.754408 -2.912389 -0.7090445 -2.124743 -3.577543 1.01331 -2.755081 -1.209969 -3.047228 -1.227604 -2.825495 4.856248 1.782897 0.1613376 3.086953 -0.02281818 -1.107079 -2.864064 7.637531 3.282912 2.40153 -4.374762 2.345292 -4.525711 4.929649 2.781949 -1.953606 2.298281 -4.680072 2.630194 -3.036108 2.576345 -0.9458462 2.423156 -2.768026 2.545927 -1.793919 1.1597 8.963607 -0.7132135 2 20
-2.199729 -3.050953 -2.793082 -3.297032 -0.657778 -2.294931 -4.034557 0.9822109 -2.861973 -1.537808 -3.348303 -1.498167 -2.94682 5.588125 2.132658 0.3257163 3.098893 0.03835284 -1.435088 -2.979007 8.140037 3.842407 1.937854 -4.260162 1.831523 -4.399809 5.366043 2.701766 -1.564969 1.791937 -4.172785 2.076291 -2.936302 2.135368 -0.5255305 1.937441 -2.296374 2.059309 -1.576502 0.9586472 10.71134 -0.9872728 2 24
-2.331878 -3.320392 -2.655673 -3.344082 -0.4065735 -2.509043 -4.334238 1.135548 -2.622959 -1.609149 -3.371125 -1.519156 -2.732458 6.319574 2.540939 0.5009095 2.712879 -0.1828288 -1.509151 -2.720016 8.541439 4.312583 1.164483 -4.225947 1.058333 -4.347016 5.87065 2.455777 -1.152361 1.004489 -3.631277 1.261103 -2.861912 1.439864 -0.04529758 1.157864 -1.838436 1.273385 -1.329783 0.6182123 12.48773 -1.254851 2 28
-2.311365 -3.383511 -2.363873 -2.952938 0.05952984 -2.515623 -4.111251 1.089136 -1.966629 -1.753059 -2.795561 -1.667254 -2.088757 7.027966 2.946588 0.894503 2.464613 -0.3058699 -1.650669 -2.005208 8.754555 4.673278 0.08993108 -4.243914 0.03903478 -4.319578 6.219382 1.980081 -0.8889656 -0.04515761 -3.298866 0.1915338 -2.977088 0.4521771 0.2235942 0.08223805 -1.674127 0.2045787 -1.326962 0.1548336 14.27115 -1.172997 2 32
-2.178264 -3.106899 -2.110497 -2.445622 0.5574657 -2.378083 -3.513112 0.7773497 -1.353644 -2.149244 -2.076281 -2.056196 -1.45312 7.727794 3.30164 1.541179 2.575363 -0.02259614 -2.007464 -1.336984 8.869744 5.050548 -0.9318001 -4.140104 -0.9595892 -4.162014 6.395218 1.382319 -0.744086 -1.028745 -3.229503 -0.8382431 -3.263295 -0.5465885 0.1991302 -0.9501467 -1.821547 -0.8224846 -1.637115 -0.34782 15.91699 -0.6834731 2 36
-2.12865 -2.80631 -2.113212 -2.283388 0.8225998 -2.360225 -3.048063 0.3836454 -1.208347 -2.618762 -1.779201 -2.495873 -1.269152 8.420761 3.536437 2.136929 2.746251 0.511302 -2.443458 -1.182847 8.997364 5.516887 -1.577711 -3.972472 -1.618497 -3.987246 6.520787 0.8016919 -0.5823054 -1.641249 -3.288575 -1.513311 -3.546884 -1.207252 0.09431932 -1.588693 -2.022802 -1.456604 -1.9652 -0.6584668 17.42586 0.4495163 2 40
-2.260112 -2.636815 -2.425493 -2.446332 0.8713112 -2.537905 -2.81217 -0.2266326 -1.342314 -3.160578 -1.768864 -3.045769 -1.392464 9.153506 3.72801 2.543381 2.762653 1.198545 -3.025336 -1.313164 9.226327 6.170227 -2.050313 -3.638625 -2.09724 -3.66545 6.742957 0.3697101 -0.2771725 -2.100145 -3.324483 -2.00693 -3.771153 -1.659134 0.07681584 -2.037971 -2.123274 -1.873735 -2.099207 -0.7492968 18.90816 2.116953 2 44
-2.498684 -2.614726 -2.823215 -2.724325 0.8402527 -2.876539 -2.722664 -0.8900368 -1.432097 -3.68619 -1.77338 -3.616373 -1.515234 9.888259 3.958964 2.833723 2.604478 1.812518 -3.634553 -1.362103 9.550542 6.86446 -2.434652 -3.187853 -2.473783 -3.214291 7.079244 0.1460772 0.09138391 -2.484386 -3.344349 -2.399326 -3.990608 -2.014728 0.1020726 -2.414319 -2.218775 -2.208377 -2.141018 -0.7780998 20.19741 3.50527 2 48
-2.644839 -2.666037 -3.033626 -2.893113 0.8102983 -3.217512 -2.696273 -1.285958 -1.36058 -3.991974 -1.671293 -3.96058 -1.478341 10.42931 4.173419 3.117526 2.407148 2.08082 -4.01016 -1.21081 9.818131 7.273042 -2.638113 -2.953502 -2.669964 -2.972384 7.309137 -0.02653579 0.3244674 -2.689958 -3.496221 -2.605139 -4.230828 -2.238847 0.04339609 -2.619397 -2.416033 -2.409924 -2.264342 -0.8503709 21.09784 4.317947 2 52
-2.557511 -2.702858 -2.997768 -2.711655 0.8525319 -3.355873 -2.48376 -1.231227 -1.238271 -4.116513 -1.4914 -4.11619 -1.342624 10.72516 4.304615 3.488434 2.349808 2.15958 -4.172577 -1.035514 9.902076 7.375279 -2.788315 -3.067092 -2.821037 -3.073957 7.246818 -0.3139004 0.3130552 -2.84871 -3.874491 -2.734073 -4.50904 -2.433546 -0.1994091 -2.765171 -2.710337 -2.587525 -2.545511 -1.05031 21.63386 5.524446 2 56
-2.276417 -2.652062 -2.858247 -2.209646 1.048768 -3.189963 -1.836163 -0.9351524 -1.413925 -4.281136 -1.536744 -4.31353 -1.478141 11.02833 4.486829 3.993793 2.502702 2.471803 -4.332314 -1.262846 9.941117 7.5145 -2.986365 -3.292896 -3.013181 -3.285166 7.04941 -0.592282 0.1718379 -3.055126 -4.352868 -2.880885 -4.839165 -2.646278 -0.5478435 -2.927425 -3.024158 -2.824613 -2.91634 -1.440876 22.05428 6.938419 2 60
-2.127066 -2.548481 -2.873034 -1.921297 1.296751 -2.964726 -1.126545 -0.8260909 -1.913279 -4.593994 -1.922644 -4.648239 -1.963299 11.48714 4.775906 4.477308 2.665102 3.077369 -4.614672 -1.858 10.10333 7.880245 -3.14613 -3.369581 -3.157676 -3.349618 6.994211 -0.6616065 0.1044288 -3.230938 -4.705784 -2.988585 -5.13885 -2.762384 -0.7764229 -3.032203 -3.228058 -3.019937 -3.127599 -1.795 22.83139 7.698184 2 64
-2.252932 -2.598341 -3.03599 -2.152825 1.409952 -3.150023 -0.8788173 -0.7170603 -2.217053 -4.938385 -2.22835 -5.003464 -2.257796 11.93006 4.950058 4.737939 2.569563 3.634245 -4.958683 -2.154067 10.29985 8.262403 -3.244538 -3.331954 -3.232772 -3.301545 7.101628 -0.5395722 0.1394048 -3.356756 -4.916924 -3.052033 -5.308444 -2.762523 -0.8140108 -3.099272 -3.27885 -3.105985 -3.058961 -1.846854 23.75525 8.004292 2 68
-2.341446 -2.776965 -3.047067 -2.392757 1.498178 -3.680866 -0.8537653 -0.1930705 -2.027683 -5.027563 -2.100145 -5.098015 -2.017606 12.17983 4.971046 4.918614 2.331359 3.903474 -5.079149 -1.830759 10.39265 8.366347 -3.415573 -3.4355 -3.380119 -3.397792 7.163254 -0.3805342 0.1233279 -3.5313 -5.127755 -3.217464 -5.385724 -2.852508 -0.8477511 -3.275256 -3.303694 -3.226538 -2.94003 -1.790735 24.24816 7.878849 2 72
-2.257171 -2.923338 -2.828958 -2.375593 1.707785 -4.02258 -0.9660921 0.8075232 -1.538728 -4.590323 -1.77948 -4.641703 -1.486944 12.27033 5.038529 5.1199 2.243799 3.626884 -4.637081 -1.242227 10.38863 8.050765 -3.621519 -4.071331 -3.595168 -4.035493 7.024241 -0.2301047 -0.1987297 -3.707716 -5.43815 -3.456499 -5.512172 -3.056154 -1.106182 -3.533435 -3.471982 -3.406741 -3.026093 -1.933291 24.96121 7.451202 2 76
-2.024544 -2.8849 -2.545344 -2.21014 2.016675 -3.948999 -1.264066 1.909867 -1.038401 -3.87463 -1.555215 -3.869378 -1.012946 12.32511 5.226552 5.236277 2.312635 2.779916 -3.864658 -0.7719979 10.38821 7.474202 -3.690788 -5.174311 -3.70712 -5.132539 6.749161 -0.01512211 -0.8693495 -3.74035 -5.876689 -3.564157 -5.785521 -3.150221 -1.603963 -3.654823 -3.877573 -3.477664 -3.393252 -2.220958 26.08953 7.291933 2 80
-1.691103 -2.530198 -2.290589 -1.801715 2.388068 -3.554409 -1.203746 2.270883 -0.8924791 -3.539084 -1.504709 -3.481613 -0.90865 12.39374 5.461316 5.30944 2.414269 1.979189 -3.46482 -0.6937122 10.43809 6.98622 -3.57329 -6.013997 -3.643599 -5.947705 6.507088 0.2685915 -1.548438 -3.597908 -6.388942 -3.459035 -6.12532 -3.023395 -2.064218 -3.523783 -4.408292 -3.356029 -3.885293 -2.340404 26.613 7.426523 2 84
-1.513369 -2.038265 -2.081066 -1.275032 2.732437 -2.958478 -0.6631775 1.647206 -1.331902 -3.852419 -1.79614 -3.791541 -1.360205 12.47345 5.706697 5.379954 2.569093 1.533318 -3.732875 -1.159988 10.48115 6.701003 -3.325638 -6.305682 -3.437117 -6.201844 6.394348 0.5391631 -1.96965 -3.340454 -6.822306 -3.213654 -6.339545 -2.763261 -2.185331 -3.260017 -4.726146 -3.092824 -4.12139 -2.113822 26.60204 8.013349 2 88
-1.512007 -1.666502 -1.904055 -0.8814353 2.976422 -2.269635 -0.09144176 0.8904367 -2.162974 -4.489613 -2.427233 -4.474009 -2.192469 12.57092 6.000118 5.437185 2.838614 1.161977 -4.354784 -1.970723 10.46765 6.485035 -3.01703 -6.438901 -3.126418 -6.312606 6.386948 0.7585568 -2.226074 -3.040782 -7.064777 -2.909521 -6.360445 -2.46094 -1.989933 -2.986917 -4.692949 -2.761636 -3.94818 -1.595102 26.57927 8.775512 2 92
-1.452442 -1.457247 -1.741932 -0.7108809 3.088671 -1.675266 0.2105216 0.7311316 -2.952863 -5.03595 -3.058676 -5.080765 -2.980813 12.63582 6.262756 5.454639 3.105618 0.7287298 -4.903471 -2.710636 10.37171 6.209762 -2.605942 -6.692279 -2.69278 -6.582856 6.335266 0.942919 -2.534279 -2.653803 -7.152827 -2.488478 -6.261754 -2.025465 -1.772241 -2.597527 -4.543714 -2.313768 -3.628808 -0.8975068 26.52917 8.598664 2 96
-1.430403 -1.430588 -1.630973 -0.7899873 3.053892 -1.374757 0.1242144 0.970721 -3.475121 -5.317949 -3.541199 -5.401094 -3.513915 12.56009 6.381012 5.280528 3.168945 0.2155959 -5.183846 -3.194001 10.19698 5.831993 -2.054228 -7.019294 -2.127866 -6.934369 6.139958 1.105483 -3.001057 -2.09582 -7.186886 -1.898163 -6.131009 -1.409035 -1.760782 -2.030141 -4.490558 -1.704623 -3.412245 -0.2274877 26.52725 8.210082 2 100
-1.657032 -1.578221 -1.637773 -1.102111 2.954988 -1.335863 -0.181547 1.165892 -3.851605 -5.216731 -4.002947 -5.30468 -3.926194 12.3278 6.438323 4.891176 3.032151 -0.347579 -5.068959 -3.589651 10.04413 5.436318 -1.433284 -7.282777 -1.482777 -7.21333 5.967529 1.322801 -3.550995 -1.422993 -7.293187 -1.222176 -6.060152 -0.7255155 -1.925066 -1.400026 -4.593073 -1.037359 -3.376601 0.2250741 26.26059 8.753494 2 104
-1.912844 -1.823289 -1.822912 -1.657794 2.801576 -1.515987 -0.5488039 1.488238 -4.105567 -4.69898 -4.348634 -4.780539 -4.214241 11.94679 6.454093 4.412519 2.779019 -0.8144647 -4.540348 -3.933825 9.94728 5.097367 -0.8260183 -7.431366 -0.8418273 -7.376018 5.986917 1.681267 -3.984962 -0.7761588 -7.481743 -0.5812823 -6.05466 -0.08026896 -2.109578 -0.7967654 -4.803675 -0.4412514 -3.516692 0.4435365 25.39951 9.382667 2 108
-1.837119 -2.157259 -2.086736 -2.439346 2.453221 -1.929045 -1.210373 2.317477 -4.104992 -3.90097 -4.412208 -4.005486 -4.211664 11.36244 6.242961 3.851512 2.514814 -1.204818 -3.769409 -4.027282 9.77678 4.68417 -0.2425135 -7.502385 -0.2545859 -7.455018 6.037714 2.116303 -4.236715 -0.201158 -7.640472 -0.02299374 -6.031292 0.481432 -2.286845 -0.2138212 -5.021787 0.07879586 -3.768207 0.4625528 24.53992 9.25456 2 112
-1.495422 -2.477568 -2.245336 -3.329016 1.893351 -2.361537 -2.238058 3.424039 -3.828631 -3.008525 -4.240638 -3.145168 -3.895737 10.60096 5.755412 3.190712 2.425314 -1.72056 -2.922752 -3.783803 9.469453 4.078855 0.4402982 -7.721635 0.3882692 -7.661089 5.874974 2.514954 -4.495432 0.4359187 -7.759476 0.5920992 -5.95189 1.052027 -2.512191 0.4687877 -5.225096 0.68806 -4.045056 0.4087172 24.20394 8.157969 2 116
-1.308529 -2.612606 -2.350608 -4.074865 1.352532 -2.614758 -3.135613 4.040308 -3.47617 -2.45015 -3.978134 -2.582787 -3.494043 9.819903 5.190631 2.580491 2.481001 -2.220329 -2.40586 -3.39026 9.156007 3.551716 1.244505 -8.112722 1.168415 -8.004998 5.54687 2.848206 -4.796711 1.203883 -7.793968 1.362937 -5.773193 1.729166 -2.665474 1.264164 -5.324291 1.458163 -4.147841 0.5974513 23.88282 6.234496 2 120
-1.35392 -2.558143 -2.480954 -4.286369 1.115816 -2.792074 -3.289726 3.934307 -3.291899 -2.545324 -3.741035 -2.654903 -3.284212 9.211112 4.746534 2.318506 2.321125 -2.105686 -2.538331 -3.117582 8.984091 3.525185 1.774321 -8.148978 1.733074 -7.994475 5.294879 3.062317 -4.808363 1.741167 -7.587581 1.916782 -5.488091 2.223684 -2.568353 1.787802 -5.168172 2.019007 -3.961006 1.051091 22.87614 4.12823 2 124
-1.179332 -2.466718 -2.495164 -3.907141 1.192961 -2.970346 -2.858566 3.919672 -3.16561 -2.931185 -3.506469 -3.019843 -3.176971 8.808709 4.448915 2.449152 1.74391 -1.280593 -2.924944 -2.952551 8.930439 3.931285 1.661997 -7.666081 1.656256 -7.495568 5.21628 3.052032 -4.427197 1.633656 -7.133209 1.814032 -5.215117 2.133399 -2.345311 1.682894 -4.823102 1.946719 -3.689664 1.243381 21.34602 2.818482 2 128
