Fp1 Fp2 AF3 AF4 Fz F3 F4 F7 F8 FC5 FC6 FT7 FT8 Cz FC1 FC2 C3 C4 T7 T8 A1 A2 CP1 CP2 CP5 CP6 TP7 TP8 Pz P3 P4 P7 P8 PO9 PO10 PO3 PO4 PO7 PO8 O1 O2 Oz ID time
5.435446 2.152312 0.6149105 2.049516 1.282229 1.300388 1.906652 1.445132 2.800739 0.5687125 1.561251 2.758046 1.450589 -0.3380919 1.349212 0.9783779 0.3426274 1.221434 1.304453 1.540714 -2.397105 -1.474346 0.1621462 -1.64761 0.9005508 0.9280944 -2.969598 -1.592399 -3.172469 -0.524805 -1.93141 -1.736918 -2.509536 -3.273332 -2.477992 -1.577835 -2.466356 -2.954579 -2.714343 -3.87128 0.890925 4.685595 1 -168
6.332495 2.416693 0.8358036 2.30746 1.452376 2.249117 2.081852 2.297256 2.534478 1.324299 0.9515464 3.185051 0.8580387 -0.2679089 1.749617 1.039265 0.5761672 0.9099487 1.504666 0.7341482 -2.424901 -1.540741 0.3679863 -2.171143 0.972143 0.2403366 -3.007043 -1.588727 -3.36265 -0.7794808 -2.303904 -2.143733 -2.706226 -3.431384 -2.587741 -2.060403 -2.64837 -3.282214 -2.904255 -3.931109 -0.1228749 6.34404 1 -164
6.739242 2.457347 1.237936 2.317302 1.514472 2.827652 2.097549 2.905823 2.259965 1.895577 0.6961674 3.603517 0.6403611 -0.302283 1.867286 1.022913 0.6976547 0.6815987 1.570397 0.09238473 -2.45466 -1.528093 0.5876552 -2.52086 0.7779139 -0.3568828 -2.93332 -1.55301 -3.380695 -0.9484142 -2.512932 -2.499172 -2.8026 -3.567687 -2.615887 -2.427926 -2.699024 -3.578952 -3.009923 -3.952121 -0.9679649 8.121564 1 -160
6.498915 2.286265 1.734014 2.096741 1.444834 2.663069 1.948527 3.104037 2.066057 2.153373 0.8642395 3.707391 0.8307461 -0.3460959 1.658719 0.9186519 0.7999613 0.6321512 1.536955 0.04194256 -2.323409 -1.405377 0.7837115 -2.522491 0.4496658 -0.6310353 -2.645999 -1.383168 -3.18891 -0.9575159 -2.483956 -2.583013 -2.796082 -3.502731 -2.543742 -2.555488 -2.651556 -3.57621 -2.99341 -3.855578 -1.385452 8.111166 1 -156
6.192269 2.011167 2.029007 1.783764 1.27893 1.894887 1.719027 2.834269 1.959971 2.05086 1.220458 3.411659 1.209891 -0.366963 1.248592 0.7508446 0.8627883 0.7001057 1.467277 0.5236388 -2.050094 -1.217814 0.9521484 -2.275593 0.2672216 -0.5137553 -2.26191 -1.092247 -2.88858 -0.7632545 -2.285639 -2.4009 -2.731007 -3.220186 -2.438299 -2.478347 -2.583337 -3.31884 -2.91381 -3.64912 -1.271696 6.352588 1 -152
5.991598 1.67695 1.881343 1.461442 1.034308 1.179532 1.480731 2.090772 1.899651 1.535655 1.467564 2.898863 1.527174 -0.457353 0.7390829 0.5889116 0.7067474 0.7129858 1.248878 0.9696985 -1.821822 -1.051013 1.04246 -2.051616 0.3014204 -0.296815 -1.982405 -0.7575431 -2.627012 -0.4234293 -2.099031 -2.168861 -2.611604 -2.861916 -2.362545 -2.239429 -2.496347 -2.999474 -2.813917 -3.436388 -0.7000731 5.822925 1 -148
5.478222 1.353625 1.35882 1.197083 0.7103142 1.051876 1.289343 1.192949 1.724908 0.8540568 1.378807 2.096497 1.515063 -0.5772701 0.2843508 0.494721 0.4287533 0.6211472 0.7293255 0.812387 -1.673298 -0.9273586 1.098401 -1.968233 0.4244225 -0.3541449 -1.801653 -0.3936671 -2.444498 -0.03288741 -2.027062 -1.9843 -2.408712 -2.466487 -2.246326 -1.804933 -2.342708 -2.654578 -2.666647 -3.198341 -0.1016516 7.979663 1 -144
4.695539 1.088495 0.732743 1.003071 0.3329968 1.29069 1.138995 0.575762 1.378006 0.4794261 0.9350114 1.078672 1.092592 -0.5326816 0.05076521 0.4553051 0.3761576 0.5080007 0.2386751 0.07342777 -1.442577 -0.7966866 1.284789 -1.972441 0.6710281 -0.5864039 -1.549416 0.02350062 -2.279371 0.4033929 -1.974134 -1.673094 -2.143626 -1.971389 -2.032233 -1.184974 -2.124708 -2.238717 -2.445029 -2.825243 0.2038452 9.66186 1 -140
4.104938 0.8267071 0.3357522 0.7878122 -0.003430724 1.301733 0.9740631 0.3474035 1.051746 0.4331365 0.3446876 0.2590504 0.5003679 -0.302898 0.007361675 0.4470968 0.5839098 0.4193211 0.1750738 -0.6952005 -1.050058 -0.6395732 1.549541 -1.973027 1.101715 -0.5883378 -1.183972 0.4232086 -2.061432 0.8776767 -1.79081 -1.130999 -1.882244 -1.424257 -1.770519 -0.5387726 -1.889822 -1.767381 -2.152755 -2.351919 0.3120151 8.033063 1 -136
3.735207 0.5194013 0.338176 0.4877619 -0.1944006 1.037279 0.763879 0.4655618 0.8027529 0.4406502 -0.2164605 -0.04590323 -0.0475839 -0.06772757 0.0342474 0.4524401 0.8200333 0.3177516 0.4445641 -1.096163 -0.6100073 -0.5101557 1.717139 -1.945118 1.521239 -0.4333281 -0.826847 0.7189811 -1.809088 1.22855 -1.47309 -0.5946679 -1.657164 -0.9280449 -1.502956 -0.1048517 -1.652681 -1.343771 -1.811582 -1.924565 0.1645306 4.786003 1 -132
3.30566 0.1849724 0.5195128 0.1480626 -0.2689905 0.8350099 0.5101985 0.8058468 0.6138326 0.3484786 -0.6604939 0.4346645 -0.502801 0.04430304 0.08464642 0.4384565 0.9389396 0.1260893 0.8019146 -1.120442 -0.308172 -0.4381828 1.753493 -1.926699 1.573795 -0.5251836 -0.5717254 0.9365038 -1.601067 1.286578 -1.175588 -0.3566897 -1.449083 -0.5160795 -1.261959 0.01270918 -1.413653 -1.105104 -1.490972 -1.626437 -0.22386 2.839459 1 -128
2.956474 -0.05505146 0.5731647 -0.07709118 -0.3196248 0.8223538 0.2757893 1.187341 0.5168349 0.1990867 -0.9502099 1.596324 -0.8492716 0.04525553 0.1642012 0.4001065 0.9257056 -0.1736409 1.151328 -0.9925585 -0.1952192 -0.3816072 1.686753 -1.915513 1.173613 -0.8826849 -0.4185258 1.113575 -1.436433 1.122041 -1.03911 -0.3782516 -1.273586 -0.2016929 -1.097793 -0.05949779 -1.22749 -1.030473 -1.275671 -1.414491 -0.6362105 2.371774 1 -124
3.11443 -0.07285482 0.5255673 -0.06464356 -0.3170281 0.9813497 0.1473035 1.627368 0.3253162 0.2052362 -1.173199 2.544687 -1.124231 0.01373573 0.2631008 0.3259914 0.9003758 -0.4943593 1.317973 -0.9857283 -0.1477132 -0.3251348 1.579797 -1.880603 0.6768131 -1.32961 -0.3323913 1.192628 -1.290226 0.9340184 -1.073889 -0.4881073 -1.280188 -0.01153416 -1.093722 -0.1600566 -1.207974 -0.9528557 -1.249394 -1.237005 -1.236502 2.853276 1 -120
3.385661 -0.01334994 0.6084045 0.01009797 -0.2273949 1.165595 0.07685974 2.020717 -0.05393113 0.3579589 -1.37281 2.613863 -1.321573 0.02880843 0.319481 0.2069907 0.9707634 -0.7174226 1.219222 -1.162834 -0.01205609 -0.255576 1.536626 -1.770739 0.474303 -1.741781 -0.2261281 1.181419 -1.147155 0.8814612 -1.17268 -0.5158138 -1.490511 0.1321565 -1.234666 -0.1039105 -1.334104 -0.7240368 -1.383799 -1.108734 -1.955185 3.855772 1 -116
2.612205 -0.1618597 0.8814898 -0.1514975 -0.1670343 1.130147 -0.05724497 1.971964 -0.3038002 0.4957733 -1.427502 2.177189 -1.337464 0.133255 0.3091789 0.1273346 1.100568 -0.75315 1.228274 -1.415206 0.2773117 -0.098083 1.648267 -1.522048 0.6729183 -1.80422 -0.001622568 1.290981 -0.9238105 1.076151 -1.146209 -0.1912379 -1.5809 0.419067 -1.280244 0.2634266 -1.367118 -0.2995632 -1.429015 -0.9753115 -2.076921 2.655677 1 -112
0.6517105 -0.4660994 1.096911 -0.4749554 -0.2177901 0.8006018 -0.2018177 1.449058 -0.2957548 0.6344313 -1.275835 1.829655 -1.174476 0.2911884 0.3284748 0.1792888 1.21922 -0.5903453 1.571904 -1.525301 0.636557 0.194568 1.87105 -1.141912 1.009226 -1.390215 0.2999066 1.63615 -0.5808175 1.408864 -0.9052994 0.4367787 -1.356719 0.8626198 -1.083668 0.7423403 -1.181716 0.1785712 -1.243842 -0.7387286 -1.469545 -2.014211 1 -108
-0.940564 -0.6287248 0.9802498 -0.6286705 -0.2471941 0.4006385 -0.2004078 0.9699646 -0.3809018 0.8571295 -1.076726 1.690614 -1.008613 0.3903982 0.42402 0.3065323 1.277743 -0.3725002 1.864721 -1.328589 0.8836306 0.5215878 2.016635 -0.7803628 1.084531 -0.9909889 0.4983777 1.973722 -0.2446785 1.562989 -0.6622801 0.8313059 -1.082543 1.194625 -0.8393681 0.9460586 -0.9538547 0.4120788 -1.048251 -0.5282838 -1.005826 -6.138179 1 -104
-0.4589386 -0.5041595 0.5720497 -0.4566478 -0.1105315 0.2531099 -0.02605047 0.9544426 -0.7417563 1.194106 -0.9500814 1.618644 -0.9051885 0.3450476 0.4415673 0.3474423 1.245021 -0.2883753 1.796602 -0.9554995 0.9157288 0.6894979 1.973179 -0.621281 0.9129549 -1.022377 0.4497504 1.973429 -0.08347566 1.383364 -0.7039871 0.618794 -1.085503 1.161371 -0.8172344 0.7027588 -0.9295794 0.193423 -1.103474 -0.645969 -1.325636 -6.006631 1 -100
1.622694 -0.2138434 0.1081414 -0.1083658 0.08693269 0.2797937 0.1996311 1.173036 -1.106867 1.453212 -0.7479162 1.370299 -0.6852853 0.2256137 0.2879681 0.2472477 1.112842 -0.3174447 1.408804 -0.5731055 0.8087369 0.6686181 1.722076 -0.5841612 0.722745 -1.259765 0.221129 1.631368 -0.0793842 1.038499 -0.9389066 0.03557175 -1.306364 0.8303652 -1.003936 0.1734228 -1.11279 -0.2563091 -1.336188 -1.061334 -1.928751 -2.808113 1 -96
3.118377 -0.03264105 -0.3224577 0.1096572 0.09460413 0.1300818 0.2926751 1.02511 -1.225111 1.333012 -0.3712253 0.714848 -0.2897152 0.161665 0.07988295 0.09705429 0.8871289 -0.3004658 0.7301712 -0.2121513 0.6817992 0.6074211 1.297775 -0.4411247 0.4763697 -1.349374 0.03513326 1.261845 -0.06934131 0.7780316 -1.008636 -0.4490844 -1.377169 0.5195544 -1.101094 -0.2802822 -1.225369 -0.4821279 -1.420842 -1.337464 -1.924377 0.7878233 1 -92
3.072037 -0.08997439 -0.685398 0.05563786 -0.1911564 -0.1811015 0.1553157 0.3702078 -1.151185 0.8193484 0.001937189 -0.2844019 0.0681135 0.144132 -0.1151829 -0.05171838 0.6094606 -0.2401559 -0.05066805 0.06624425 0.5874065 0.593722 0.9123512 -0.2212573 0.2736555 -1.219877 0.03235851 1.128502 0.03088224 0.7250562 -0.8014086 -0.5850783 -1.123911 0.4414425 -0.9174063 -0.3927383 -1.066402 -0.3617232 -1.202804 -1.177516 -1.253336 3.276615 1 -88
2.060059 -0.2872789 -0.7890685 -0.177578 -0.5789334 -0.4369191 -0.1095371 -0.347046 -0.9902354 0.2279323 0.2062995 -1.176149 0.2397991 0.1291844 -0.3220612 -0.1855676 0.3514834 -0.2301037 -0.4304331 0.2208737 0.5735918 0.6176147 0.8342808 -0.06555104 0.4227017 -0.8428941 0.1718466 1.23271 0.2068329 0.9091157 -0.4730273 -0.2989614 -0.7261841 0.5956399 -0.5750107 -0.126203 -0.737381 -0.07596291 -0.8335804 -0.6742568 -0.4449506 2.934996 1 -84
0.8493474 -0.4810278 -0.6301144 -0.4301169 -0.8161108 -0.6492941 -0.3418516 -0.7608252 -0.7058357 -0.179287 0.2579291 -1.428417 0.277312 0.1201963 -0.5537269 -0.2974033 0.1155808 -0.2291036 -0.2252128 0.2381879 0.6032329 0.6251833 1.029498 0.02840945 0.7659905 -0.2225282 0.3077362 1.337179 0.378737 1.166154 -0.1577233 0.2256364 -0.3613698 0.8083977 -0.2557033 0.3027971 -0.4004072 0.2026599 -0.4860268 -0.1316299 0.2137613 -0.1101917 1 -80
-0.2187487 -0.5994409 -0.4767035 -0.606149 -0.9184128 -0.914497 -0.5102063 -0.8231618 -0.3220715 -0.4998676 0.1812589 -0.9519209 0.2005854 0.1143453 -0.8056168 -0.4547732 -0.1240214 -0.1820044 0.1968462 -0.02533155 0.5786304 0.5556411 1.211044 0.07832244 0.9283416 0.3592319 0.3715226 1.234741 0.4589247 1.254893 0.1200573 0.6395525 -0.02763142 0.8598742 0.01998437 0.6181939 -0.06369688 0.4338199 -0.1660833 0.272751 0.6322044 -2.630489 1 -76
-1.421062 -0.6264234 -0.370485 -0.6906191 -0.9903543 -1.125622 -0.612075 -0.6129065 0.0157456 -0.7957522 0.01508691 -0.1494972 0.0105958 0.159453 -0.9549232 -0.6269006 -0.2883706 -0.1465495 0.560497 -0.5502147 0.5519419 0.4385522 1.229132 0.04419024 0.9275662 0.5596976 0.4187436 0.9980133 0.4654843 1.143546 0.347849 0.8435848 0.2976175 0.7310383 0.2898262 0.7303194 0.2755024 0.6369146 0.1579296 0.6059667 0.78496 -3.27805 1 -72
-2.818689 -0.5302663 -0.1868225 -0.6444741 -0.958819 -0.9899371 -0.6034132 -0.3848332 0.2278159 -0.8887268 -0.08745076 0.5424364 -0.1228538 0.2575769 -0.8538613 -0.6529619 -0.3409718 -0.1733268 0.764405 -0.9170167 0.563815 0.3316554 1.064898 -0.0868176 0.8133233 0.3269871 0.4454975 0.7462566 0.43045 0.8477402 0.4167109 0.825078 0.5445331 0.5006704 0.4869275 0.6082438 0.5154337 0.6996106 0.4082681 0.865978 0.8521051 -2.845155 1 -68
-3.843906 -0.3074479 0.05225693 -0.4423661 -0.7224009 -0.4102113 -0.50077 -0.4018738 0.3715988 -0.8157248 -0.09760783 1.020529 -0.1263989 0.3087379 -0.5490689 -0.4920403 -0.3712495 -0.2244244 0.7604523 -0.8527716 0.5096772 0.2155514 0.7222021 -0.2346303 0.4828848 0.02634636 0.3913157 0.4789412 0.3339785 0.4279846 0.3048342 0.6209354 0.6489081 0.2438237 0.5331399 0.3454302 0.5940456 0.5643175 0.506853 0.9736506 1.043395 -2.088863 1 -64
-4.191668 -0.01608829 0.2067645 -0.1494385 -0.3970043 0.2816024 -0.3584766 -0.5635541 0.5221334 -0.7926629 -0.1982529 1.283872 -0.2201056 0.2799744 -0.2265308 -0.2897875 -0.4121736 -0.2609712 0.7843428 -0.5373065 0.3958057 0.08544325 0.3715568 -0.2831299 0.2046713 0.1758197 0.3021541 0.2315769 0.2204108 0.1934382 0.2557035 0.6013939 0.7011861 0.1034655 0.5398294 0.2791616 0.6134741 0.4598739 0.5439618 1.009321 1.300386 -3.050255 1 -60
-3.83752 0.2698898 0.137917 0.1437265 -0.1920293 0.7192001 -0.2126805 -0.5481738 0.5870379 -0.7845004 -0.4591071 1.122491 -0.5334876 0.2120936 -0.03016666 -0.2228933 -0.3915435 -0.315114 0.9660956 -0.2374509 0.3311514 -0.03870059 0.1927817 -0.2311755 0.365973 0.7536142 0.2083611 0.04399836 0.1378604 0.3122588 0.4356085 0.9596237 0.837085 0.100404 0.6768963 0.5318413 0.7111269 0.5616124 0.6664098 1.042338 1.284663 -6.277562 1 -56
-2.544775 0.421884 -0.1005571 0.3186674 -0.07653981 0.8537077 -0.1120552 -0.3419674 0.4927299 -0.6122016 -0.7410237 0.6587584 -0.8998777 0.1451869 0.06903529 -0.2659605 -0.2781995 -0.3989475 1.137618 -0.08521766 0.2861538 -0.168534 0.1371538 -0.182751 0.7975039 1.231184 0.02482683 -0.1004679 0.03056713 0.5235705 0.6449183 1.338153 0.979006 0.1025952 0.8416384 0.8043171 0.8282967 0.7065728 0.8135086 0.9953018 0.9472228 -9.220931 1 -52
-0.5512699 0.4050801 -0.2949434 0.3476793 0.1104435 0.8353885 -0.05356341 -0.1716628 0.3379423 -0.2402708 -0.8248192 0.4088269 -1.04002 0.1305744 0.1918778 -0.2205804 -0.1657515 -0.438622 1.229174 0.0846459 0.1747914 -0.2736548 0.07928056 -0.1734281 1.045407 1.317002 -0.2347537 -0.1978315 -0.1376027 0.5533223 0.6244714 1.394396 0.8801658 0.0388003 0.7536711 0.8394255 0.7479852 0.649577 0.7626991 0.8068981 0.6169065 -10.34767 1 -48
1.205878 0.4263381 -0.3487175 0.4175071 0.3498085 0.8451595 0.06735864 0.01627572 0.1691723 0.2379515 -0.5073561 0.4755505 -0.7356815 0.1634906 0.3508453 -0.03325051 -0.1552121 -0.3790909 1.150571 0.6264331 -0.01399075 -0.317717 -0.08429711 -0.1774229 0.8569862 1.016406 -0.462002 -0.3198607 -0.3328371 0.324176 0.3338226 1.055786 0.4470119 -0.1381978 0.3563475 0.6038996 0.3848951 0.3061228 0.4302968 0.46435 0.2917763 -9.368547 1 -44
1.856013 0.5771669 -0.3312079 0.5939 0.5346577 0.8318139 0.2687044 0.2557442 0.07062589 0.5435122 0.1097823 0.4625856 -0.0867376 0.1609271 0.474612 0.1594278 -0.2537986 -0.2445485 0.6762855 1.341386 -0.265461 -0.3606599 -0.4399403 -0.2087986 0.3554437 0.5090349 -0.6377837 -0.6204284 -0.5137831 -0.1120685 -0.0751677 0.3801476 -0.07829929 -0.465298 -0.1048022 0.1702652 -0.05732602 -0.2142501 -0.003560544 0.01084143 -0.03540745 -5.233549 1 -40
1.442071 0.6800109 -0.2783056 0.6930171 0.6646903 0.5727081 0.4164772 0.2882452 0.1815035 0.3863688 0.6090294 0.07165891 0.5127347 0.04940356 0.4970119 0.2555812 -0.4272321 -0.06125078 -0.1869304 1.59078 -0.5313295 -0.4703472 -0.9598488 -0.2207006 -0.1362797 0.1644977 -0.7653024 -1.085548 -0.6246517 -0.5742082 -0.3656608 -0.3701992 -0.363724 -0.8239726 -0.3544254 -0.2558933 -0.303413 -0.6316909 -0.2702558 -0.3987623 -0.07590237 1.460076 1 -36
0.9062197 0.578367 -0.1586582 0.5794224 0.7394143 0.1087008 0.4080746 0.04710939 0.3892834 -0.08082691 0.7446402 -0.4946731 0.7941117 -0.1623237 0.404787 0.2698595 -0.6020818 0.179343 -1.051049 1.291654 -0.7466152 -0.5777986 -1.453394 -0.0948514 -0.5049168 0.07850613 -0.7698555 -1.477652 -0.6097181 -0.8996439 -0.4045837 -0.8516035 -0.3338631 -0.9958231 -0.3280753 -0.4640486 -0.284796 -0.7113479 -0.2472244 -0.5881621 0.1072909 7.266883 1 -32
0.685753 0.2087374 0.09197144 0.2007512 0.6787621 -0.3185156 0.2239146 -0.2824784 0.5016243 -0.4710637 0.6196986 -0.9384202 0.7706107 -0.334415 0.3102377 0.2696366 -0.6502692 0.4759422 -1.558735 0.8277672 -0.8632116 -0.5401705 -1.683965 0.1881894 -0.8167344 0.07811076 -0.5817804 -1.547441 -0.4185888 -1.042615 -0.2240235 -0.9283254 -0.08876338 -0.8606786 -0.1174658 -0.4338143 -0.07128916 -0.4925032 0.03365314 -0.4544659 0.3377728 9.216569 1 -28
0.402013 -0.3042371 0.3662199 -0.321252 0.4299705 -0.6734893 -0.07156031 -0.6392764 0.561533 -0.7214504 0.442233 -1.293869 0.6107313 -0.3529943 0.2682771 0.2837828 -0.5502905 0.7558461 -1.764179 0.3708714 -0.8453929 -0.3560651 -1.624315 0.5199091 -1.082163 0.1732324 -0.2271359 -1.302323 -0.06222062 -1.069343 0.06892593 -0.7551334 0.2622766 -0.5453885 0.1666698 -0.2893167 0.2512577 -0.190613 0.4327828 -0.08156633 0.7594833 7.997542 1 -24
0.03459011 -0.5879424 0.3519064 -0.5892379 0.1118785 -0.9889927 -0.2500874 -0.8874469 0.6409741 -0.8647798 0.3442893 -1.392472 0.4869647 -0.3191749 0.1741999 0.2949598 -0.3966653 0.8775449 -1.810724 -0.1014578 -0.7714189 -0.2173169 -1.481013 0.7230793 -1.286049 0.2769602 0.1326272 -1.034601 0.2583391 -1.143397 0.3228144 -0.6472684 0.5413801 -0.3525318 0.3808474 -0.2205314 0.5210236 -0.01291116 0.7138779 0.2250538 1.144413 6.798378 1 -20
-0.07216965 -0.4083838 0.1969501 -0.3666725 0.04077794 -0.9470089 -0.09245417 -0.6062106 0.5957698 -0.6503012 0.349583 -0.9847499 0.4600548 -0.3614536 0.06662636 0.3163713 -0.1710504 0.7809471 -1.695875 -0.5090783 -0.7779787 -0.2784308 -1.422337 0.7006446 -1.510946 0.08068717 0.2885124 -0.9894329 0.3063804 -1.353571 0.4174111 -0.7874696 0.5894195 -0.4309134 0.421269 -0.4019127 0.5695587 -0.07559182 0.733438 0.2176694 0.7825401 6.979375 1 -16
0.166132 0.07333081 0.3967892 0.1355855 0.3522767 -0.2767649 0.3141197 0.2823177 0.3447251 0.04311639 0.3619663 -0.425168 0.4334045 -0.4439523 0.1188201 0.3639195 0.184774 0.5810965 -1.426939 -0.6709862 -0.8423674 -0.4686895 -1.375903 0.565275 -1.699865 -0.3254522 0.2004371 -1.111874 0.1083296 -1.595562 0.3878618 -1.051679 0.3969916 -0.6473225 0.2922052 -0.8132011 0.3827907 -0.317756 0.5483286 -0.04754573 -0.3884529 6.894925 1 -12
0.8346137 0.5379539 0.9702646 0.5769261 0.7761829 0.735985 0.6841661 1.261835 0.1103826 0.8666412 0.3155506 -0.1111878 0.3450738 -0.5271006 0.2928284 0.4174643 0.5075015 0.4158845 -1.080046 -0.5041565 -0.9059514 -0.6446334 -1.21796 0.4683593 -1.68511 -0.5273397 -0.04051019 -1.227373 -0.1428087 -1.795039 0.2975795 -1.298403 0.03929364 -0.8385858 0.03140316 -1.304503 0.06715211 -0.6340396 0.2733842 -0.350871 -1.615871 5.625081 1 -8
1.702947 0.810396 1.522208 0.8104404 0.981893 1.465101 0.8243437 1.697094 0.1224637 1.292214 0.4255552 -0.1195742 0.4352596 -0.6061881 0.3825624 0.4710899 0.5650896 0.3638943 -0.8810771 0.07289865 -0.9987465 -0.7161819 -1.034234 0.5107021 -1.630454 -0.3577124 -0.2828282 -1.283728 -0.2927654 -1.995703 0.1745559 -1.515445 -0.2920925 -0.9387313 -0.2155008 -1.727631 -0.2100933 -0.9576786 0.04464753 -0.5405779 -2.106195 4.027759 1 -4
1.94516 0.8969817 1.824717 0.865558 0.9001932 1.523417 0.7497141 1.378841 0.4085604 1.203226 0.9342972 -0.3828139 0.9466451 -0.6116526 0.2801238 0.5153031 0.4257831 0.4907715 -0.8832882 1.124508 -1.069576 -0.6329013 -0.9272068 0.7426853 -1.712227 0.01447498 -0.3634886 -1.302825 -0.2769195 -2.121003 0.09970821 -1.57345 -0.4070037 -0.9479099 -0.3016209 -1.902156 -0.3413797 -1.166472 -0.05164446 -0.6327723 -1.561588 1.899429 1 0
1.40319 0.8761511 1.960315 0.8308038 0.6981471 1.18831 0.6354651 0.847832 0.8166972 1.065996 1.66406 -0.4497302 1.686419 -0.5720895 0.01793549 0.5184207 0.3395671 0.7459961 -0.7912202 2.236966 -1.058114 -0.4922683 -0.9078795 1.026829 -1.823682 0.1968107 -0.3348599 -1.314583 -0.1876026 -2.061932 0.04964976 -1.396442 -0.4110993 -0.9346048 -0.3404214 -1.785587 -0.4152835 -1.185879 -0.1178086 -0.7469404 -0.6452723 -0.8322163 1 4
0.790272 0.8063736 2.049109 0.7682737 0.5230253 0.9775873 0.5794755 0.7062707 1.108111 1.141437 2.184298 0.04403773 2.209936 -0.596282 -0.2572014 0.5145463 0.3298242 0.9805548 -0.5595024 2.653872 -1.035367 -0.4076139 -1.034199 1.175528 -2.000759 -0.05768411 -0.3194938 -1.345552 -0.1381024 -1.964736 -0.0750116 -1.196069 -0.470953 -0.9006598 -0.4498901 -1.589848 -0.5066671 -1.014483 -0.2173371 -0.857829 -0.2720421 -2.275209 1 8
0.5437551 0.6812134 2.181845 0.6431797 0.3646362 1.049463 0.5091488 0.8542739 1.207425 1.067298 2.302479 0.6610712 2.300531 -0.6305231 -0.3749581 0.5822953 0.2077391 1.148537 -0.5556557 2.163969 -1.087221 -0.3021596 -1.329902 1.192064 -2.359138 -0.58109 -0.2990385 -1.396592 -0.08425044 -2.059665 -0.2302489 -1.204217 -0.5268943 -0.7999249 -0.5208018 -1.541273 -0.5449889 -0.7257762 -0.2528743 -0.806749 -0.3824005 -1.064515 1 12
0.7448359 0.5713134 2.322388 0.5069258 0.2389722 1.256268 0.431115 0.9651081 1.169678 0.7051587 2.171888 0.7552385 2.108172 -0.5757057 -0.3049235 0.7132844 -0.04814759 1.288289 -0.8768265 1.332099 -1.226256 -0.1437815 -1.64333 1.198552 -2.681669 -0.9531828 -0.3011 -1.491379 0.01554923 -2.316815 -0.2915745 -1.382379 -0.494227 -0.711399 -0.4535341 -1.652801 -0.4829629 -0.5263075 -0.2044584 -0.6143137 -0.4830884 1.365305 1 16
1.341515 0.6536985 2.296908 0.5720764 0.2803482 1.497033 0.5023911 1.108765 1.01299 0.5034125 1.994039 0.4287934 1.856288 -0.4809618 -0.1150545 0.8425915 -0.215175 1.394778 -1.143969 0.707565 -1.406133 -0.07949429 -1.753009 1.250391 -2.708506 -0.9577883 -0.4152617 -1.685937 0.0198099 -2.519144 -0.2896542 -1.513509 -0.4836437 -0.7370583 -0.3782233 -1.745378 -0.4273729 -0.5154836 -0.1923761 -0.4944192 -0.6628398 2.656963 1 20
2.028392 0.9240324 2.208695 0.8543297 0.5365664 1.842445 0.7526362 1.533791 0.8582377 0.7253469 1.801469 0.2236784 1.610162 -0.4432851 0.1343122 0.9173954 -0.1716536 1.436316 -1.188939 0.3478796 -1.609213 -0.2164344 -1.678857 1.276082 -2.616747 -0.8955398 -0.637432 -2.002942 -0.2014733 -2.555125 -0.4271808 -1.52358 -0.6671271 -0.8824127 -0.5028133 -1.67455 -0.5519105 -0.5560327 -0.3178734 -0.5510972 -1.191193 3.051674 1 24
2.504739 1.205364 2.244265 1.155011 0.8591239 2.263097 1.020027 2.210858 0.8642096 1.248232 1.576225 0.3194667 1.374498 -0.4705976 0.4070449 0.9129134 -0.009442762 1.422198 -1.202229 0.1619043 -1.882549 -0.4861857 -1.65749 1.233512 -2.737505 -1.001755 -0.9085218 -2.384226 -0.5278295 -2.531953 -0.7343456 -1.525382 -0.9517966 -1.125842 -0.7553324 -1.543871 -0.7880169 -0.5531625 -0.5091841 -0.6805233 -1.879138 3.864196 1 28
2.50751 1.382422 2.270986 1.345457 1.044837 2.449152 1.154522 2.755348 0.9779435 1.861385 1.469308 0.3200146 1.281194 -0.4933025 0.651365 0.8645227 0.1320516 1.396648 -1.312004 0.2669117 -2.183139 -0.7039486 -1.753349 1.250621 -2.992733 -1.022154 -1.147933 -2.688499 -0.7371477 -2.56974 -0.9803742 -1.552583 -1.084584 -1.375376 -0.8716528 -1.500787 -0.8794853 -0.5329604 -0.5989942 -0.7074862 -2.279214 4.58533 1 32
1.772763 1.444402 2.138228 1.412714 1.027721 2.178416 1.156151 2.758128 1.118965 2.14307 1.617236 -0.2327758 1.459028 -0.46476 0.7522171 0.8112663 0.1171333 1.363877 -1.549012 0.7797785 -2.386826 -0.7530521 -1.858095 1.424297 -3.024988 -0.7212538 -1.256775 -2.836601 -0.7656271 -2.574772 -1.014789 -1.494207 -1.00243 -1.481119 -0.780126 -1.453794 -0.78171 -0.4772815 -0.5433602 -0.5356795 -2.05378 4.567419 1 36
0.5912449 1.446813 1.850243 1.417017 0.882687 1.596109 1.137469 2.227297 1.339167 1.847438 1.879911 -0.9780908 1.787622 -0.4126468 0.6287005 0.7453625 -0.09193453 1.336412 -1.776321 1.477941 -2.456754 -0.6531709 -1.980194 1.686978 -2.777212 -0.1346394 -1.19945 -2.945961 -0.6899611 -2.48453 -0.8726584 -1.329105 -0.8133056 -1.465101 -0.6048995 -1.340509 -0.6098402 -0.3911967 -0.4140194 -0.2754849 -1.253265 4.071892 1 40
-0.0943311 1.373523 1.578994 1.34432 0.7137675 0.9721273 1.112579 1.621349 1.597058 1.398041 2.078296 -1.167647 2.058604 -0.3786868 0.3464828 0.6612298 -0.3400416 1.374211 -1.783711 1.923623 -2.431275 -0.4870637 -2.180547 1.91218 -2.567702 0.4362949 -1.033569 -3.129588 -0.5889368 -2.451241 -0.6845987 -1.189457 -0.6137696 -1.456316 -0.4363154 -1.305414 -0.4100533 -0.3076169 -0.2584697 -0.1256074 -0.42793 3.347271 1 44
0.3230624 1.18019 1.523558 1.145377 0.5889758 0.5652761 1.001271 1.325215 1.707696 1.140901 2.226731 -0.8876404 2.246744 -0.3777337 0.04845509 0.5592595 -0.5182667 1.44195 -1.756207 1.935852 -2.415785 -0.3709383 -2.457368 1.950602 -2.671221 0.5615581 -0.881287 -3.326231 -0.5198197 -2.536889 -0.6478538 -1.176237 -0.42079 -1.466669 -0.2647589 -1.388833 -0.2141431 -0.1889019 -0.06619838 -0.1087777 -0.0978218 3.287712 1 48
1.344527 0.9578132 1.484596 0.9187454 0.4555224 0.3881597 0.8186657 1.194951 1.612763 0.8085323 2.424647 -0.7780161 2.4704 -0.4380329 -0.1828119 0.4308842 -0.7529526 1.45828 -2.095109 1.867983 -2.523058 -0.3518551 -2.865903 1.767698 -3.095554 0.2931692 -0.8350965 -3.471266 -0.4898796 -2.687989 -0.803083 -1.306622 -0.141402 -1.479254 0.005001355 -1.499025 0.01554655 -0.05817729 0.2263683 -0.07202443 -0.1238356 5.106651 1 52
1.756432 0.7917111 1.274356 0.7552106 0.2753288 0.2510359 0.6525201 0.9326203 1.47043 0.2836135 2.63605 -0.9053009 2.718127 -0.5569788 -0.3361655 0.3331447 -1.089553 1.442659 -2.632337 2.052635 -2.68806 -0.3316734 -3.374649 1.531908 -3.570973 0.06814612 -0.852258 -3.552578 -0.4264675 -2.913243 -0.9316544 -1.460565 0.3114244 -1.482333 0.4525056 -1.558426 0.391293 0.01244476 0.6583177 0.1059109 -0.07726136 7.582644 1 56
0.7207537 0.6444392 1.155284 0.6062245 0.1328366 0.1709061 0.5426622 0.5613161 1.404963 -0.08702846 2.725699 -0.8908797 2.830031 -0.6671705 -0.4081191 0.3196544 -1.286603 1.46597 -2.753049 2.345074 -2.718541 -0.2233109 -3.701536 1.458637 -3.70981 0.05740748 -0.7759261 -3.505492 -0.2454611 -3.088805 -0.8377076 -1.368318 0.8284555 -1.389588 0.9605075 -1.454633 0.8645747 0.08684206 1.13177 0.4062635 0.1135374 7.578117 1 60
-1.087434 0.5097684 1.240053 0.4571256 -0.003426579 0.1827342 0.4705521 0.1936768 1.454774 -0.1058425 2.71207 -0.8521973 2.786708 -0.7844944 -0.4001249 0.2896636 -1.161409 1.545778 -2.40474 2.584042 -2.564614 -0.1154337 -3.662327 1.618739 -3.41607 0.2303801 -0.4997314 -3.336097 0.03519329 -3.086463 -0.5614739 -1.032374 1.233004 -1.22753 1.324643 -1.26946 1.260103 0.2172628 1.48827 0.668595 0.3802778 4.687804 1 64
-2.011242 0.5109689 1.363477 0.4379336 -0.1653121 0.3855033 0.4894041 -0.03171302 1.668558 0.1038639 2.6699 -0.9596586 2.685416 -0.9644268 -0.2939776 0.1468971 -0.831265 1.614059 -2.040739 2.719773 -2.407365 -0.1478639 -3.449964 1.814734 -2.999923 0.4906265 -0.1622701 -3.178478 0.2334953 -3.123352 -0.3601153 -0.8839335 1.386892 -1.229379 1.403134 -1.346963 1.396696 0.2099986 1.580115 0.6517876 0.646499 1.978186 1 68
-1.583631 0.6772211 1.592336 0.5808142 -0.1668325 1.019512 0.659069 0.08840121 1.92132 0.3629251 2.569369 -0.826887 2.555032 -1.107741 -0.01843914 -0.006747322 -0.4917599 1.635536 -1.889811 2.519247 -2.405716 -0.2959315 -3.383774 1.775129 -2.85676 0.5600718 -0.02913276 -3.104725 0.2058738 -3.442409 -0.4655183 -1.21884 1.195942 -1.493653 1.160439 -1.806405 1.189409 -0.1093911 1.358314 0.3151713 0.6503518 2.112652 1 72
-0.8563888 0.8211363 1.992539 0.6972477 0.02656384 1.871929 0.8327348 0.4271022 2.012622 0.5842008 2.429849 -0.5331371 2.421205 -1.123504 0.4359159 -0.04563513 -0.2107394 1.65855 -2.07093 1.917761 -2.510651 -0.401589 -3.575761 1.523414 -3.169034 0.3170863 -0.1057574 -3.118473 0.09339625 -3.995054 -0.7865565 -1.852066 0.8949252 -1.806478 0.8532455 -2.378104 0.8919201 -0.5512318 1.079823 -0.03950784 0.389971 4.95739 1 76
-0.5597067 0.9030886 2.251137 0.7679864 0.2052305 2.398603 0.890497 0.686344 1.949505 0.8878512 2.376789 -0.6197519 2.379825 -1.08331 0.9190325 -0.01556763 0.02990855 1.749218 -2.599467 1.320392 -2.592607 -0.3524356 -3.933288 1.312355 -3.829843 0.02543035 -0.1450353 -3.244192 0.1170269 -4.64162 -1.052777 -2.446305 0.8242928 -2.017832 0.7642744 -2.818247 0.8111852 -0.8565807 1.030454 -0.1651306 0.1599409 8.213362 1 80
-0.239929 1.146739 2.146942 1.033958 0.3354336 2.600724 0.9871193 0.8605001 1.798101 1.390619 2.421937 -0.8944544 2.431777 -1.047919 1.271541 0.00342937 0.2478533 1.931332 -3.12317 1.032562 -2.584626 -0.2073969 -4.337854 1.263883 -4.539752 -0.1191357 -0.07388895 -3.490508 0.2371117 -5.270569 -1.215005 -2.905666 0.8694875 -2.266536 0.7749451 -3.186806 0.8415498 -1.087977 1.091068 -0.2012893 -0.06133869 10.13529 1 84
0.6398279 1.539845 1.875021 1.463289 0.5034453 2.820039 1.24397 0.9491263 1.685905 1.807327 2.422953 -1.031666 2.428022 -0.9897322 1.452435 0.03938441 0.3671446 2.155274 -3.493332 1.010059 -2.533581 -0.06622569 -4.744709 1.374728 -5.135568 -0.09914942 -5.444613e-05 -3.804318 0.3306448 -5.806077 -1.384738 -3.340665 0.8051739 -2.614664 0.7136775 -3.603249 0.7749325 -1.411868 1.044508 -0.3904293 -0.2315094 11.23473 1 88
1.679909 1.731005 1.68191 1.671326 0.6071681 2.860101 1.512848 0.7742134 1.799006 1.731951 2.345282 -1.317364 2.330639 -0.8629845 1.48126 0.1792385 0.2586435 2.442358 -4.006412 1.235022 -2.523912 0.170076 -5.157201 1.687206 -5.736177 0.1458126 0.1310257 -4.072156 0.5076829 -6.261321 -1.512751 -3.814588 0.7123873 -2.891205 0.6631792 -4.011087 0.6799845 -1.807042 0.941237 -0.6966311 0.09054292 12.61976 1 92
2.168373 1.577914 1.633292 1.508701 0.535378 2.407371 1.631986 0.3335331 2.03445 1.268705 2.305198 -1.77767 2.288825 -0.6397198 1.442558 0.4863837 -0.02413518 2.86554 -4.576919 1.616288 -2.523838 0.6244968 -5.489578 2.124305 -6.228176 0.3971048 0.4022065 -4.203721 0.8629585 -6.598567 -1.5272 -4.228776 0.6843131 -3.00552 0.6815285 -4.338001 0.6656807 -2.186357 0.8782412 -0.9388401 0.9555727 13.90615 1 96
1.976791 1.341927 1.631473 1.259438 0.3901036 1.749335 1.660957 -0.1236928 2.078828 0.9367199 2.438121 -1.998152 2.453438 -0.3484819 1.467654 0.8916255 -0.231405 3.343163 -4.709257 1.980353 -2.434486 1.166578 -5.619513 2.461905 -6.276293 0.3311106 0.6967466 -4.18207 1.221577 -6.73039 -1.520411 -4.440086 0.7033366 -3.008293 0.7369511 -4.618244 0.7048422 -2.525415 0.8480758 -1.082797 1.806551 13.57138 1 100
1.294832 1.227561 1.499266 1.147757 0.291407 1.3008 1.681988 -0.5269411 1.829953 0.9436356 2.798063 -2.06015 2.83578 -0.0728182 1.597525 1.20926 -0.2536794 3.713579 -4.540382 2.478737 -2.256441 1.559455 -5.623769 2.634697 -6.057217 0.07537363 0.8886976 -4.067901 1.386746 -6.778655 -1.532261 -4.538263 0.7533497 -2.953996 0.8082384 -4.920424 0.7716839 -2.78126 0.8528154 -1.192333 2.325819 12.24952 1 104
0.2470133 1.104627 1.259476 1.03695 0.1957115 1.138301 1.620124 -1.141806 1.515963 0.9280162 3.241859 -2.452289 3.295039 0.1278812 1.763112 1.328366 -0.2279782 3.915912 -4.692258 3.321681 -2.069816 1.730108 -5.637193 2.767415 -6.015651 -0.1480383 0.9844612 -3.942849 1.377899 -6.906757 -1.511773 -4.708958 0.8326954 -2.870154 0.8571899 -5.220714 0.8675792 -2.858469 0.9223086 -1.253321 2.890312 12.38808 1 108
-0.9488261 0.9154556 1.128213 0.8488579 0.02458748 1.179255 1.452194 -1.969745 1.398989 0.5366207 3.519275 -3.157786 3.612091 0.2797991 1.887777 1.321712 -0.2655824 4.007944 -5.17832 4.18819 -1.935063 1.793649 -5.611995 2.918791 -6.148045 -0.3130497 1.050913 -3.800423 1.35366 -7.072078 -1.452492 -4.873944 0.9505947 -2.759395 0.9028447 -5.38142 0.9713168 -2.746262 1.050146 -1.169703 3.771172 13.72007 1 112
-2.168725 0.8402622 1.056034 0.7642864 -0.1853601 1.272666 1.296039 -2.631602 1.446564 -0.1680066 3.50592 -3.883745 3.631614 0.4541083 1.947738 1.346582 -0.3938144 4.058982 -5.733224 4.389981 -1.880835 1.877232 -5.576176 2.995514 -6.285895 -0.3580095 1.143853 -3.641821 1.399232 -7.241629 -1.346626 -4.961502 1.11919 -2.62576 1.037095 -5.361052 1.090671 -2.56841 1.224671 -0.887451 4.597679 15.40371 1 116
-3.146018 0.9056506 0.7472792 0.8328375 -0.3519486 1.217814 1.21733 -3.008462 1.440966 -0.8763086 3.241724 -4.558504 3.356652 0.6605789 1.950675 1.444896 -0.5833309 4.105867 -6.327085 3.595166 -1.841924 2.015907 -5.671615 2.942388 -6.441882 -0.1797259 1.322202 -3.545199 1.494291 -7.439095 -1.152218 -5.053337 1.41666 -2.484905 1.331103 -5.297351 1.321315 -2.417435 1.517926 -0.5008759 5.071636 17.72629 1 120
-3.107294 0.9915768 0.2534323 0.9378227 -0.406407 0.9264992 1.206341 -3.17573 1.308424 -1.325971 2.837692 -4.87539 2.903175 0.8465644 1.878291 1.547378 -0.6848304 4.17498 -6.614285 2.290311 -1.696524 2.165926 -5.79837 2.84678 -6.55876 0.2892628 1.581021 -3.496145 1.582322 -7.549212 -0.8516985 -5.035133 1.830317 -2.345644 1.720559 -5.270813 1.669245 -2.273567 1.921535 -0.1941025 5.233388 18.31702 1 124
-2.017275 1.071576 -0.01946384 1.040596 -0.2645772 0.5291085 1.282513 -3.018816 1.147574 -1.387433 2.464048 -4.438068 2.486977 1.012021 1.745467 1.67309 -0.6105136 4.24749 -6.156736 1.355867 -1.445795 2.272334 -5.76232 2.758493 -6.500171 0.9014452 1.786868 -3.371395 1.582622 -7.423981 -0.553938 -4.695602 2.08607 -2.15949 1.957294 -5.170266 1.888246 -2.062505 2.201766 -0.02472125 5.092767 14.49884 1 128
-1.004653 1.146199 0.1280694 1.129418 0.03223651 0.2529207 1.401258 -2.594319 1.012919 -1.133526 2.248862 -3.604003 2.258854 1.19939 1.666195 1.905051 -0.4394483 4.300174 -5.160412 1.046561 -1.178308 2.36418 -5.483786 2.598552 -6.098224 1.171295 1.870905 -3.106682 1.469884 -7.0582 -0.5296871 -4.106386 1.974375 -1.881715 1.857736 -4.908746 1.777745 -1.783044 2.181521 0.1355162 4.758638 8.182698 1 132
-0.7711149 1.178459 0.4710679 1.154183 0.2480402 0.1111266 1.406432 -2.306772 0.8616997 -0.9554519 2.215232 -3.198113 2.206906 1.372999 1.655736 2.164201 -0.2866242 4.314082 -4.29771 0.8820112 -0.9599254 2.465195 -4.926556 2.327606 -5.31053 0.8577545 1.900967 -2.746765 1.290104 -6.541815 -0.9240453 -3.560468 1.62714 -1.576047 1.544334 -4.538237 1.468319 -1.530976 1.94572 0.3763969 4.517206 3.868145 1 136
-0.9489881 1.215053 0.5748983 1.185515 0.2294529 0.01587634 1.294822 -2.336712 0.6990789 -0.9327679 2.379068 -3.371736 2.350535 1.46187 1.610249 2.284272 -0.2023735 4.249898 -3.969389 0.6628152 -0.8410754 2.488533 -4.271122 2.018481 -4.58797 0.3341153 1.909352 -2.43182 1.076568 -6.053581 -1.545179 -3.270415 1.263869 -1.367928 1.21132 -4.186147 1.168071 -1.356389 1.627822 0.56318 4.498069 3.300751 1 140
-0.9846267 1.388259 0.3978851 1.377156 0.1639205 0.1164563 1.276025 -2.373005 0.6432537 -0.6443633 2.635044 -3.545825 2.616123 1.462129 1.567114 2.282836 -0.1545206 4.140667 -3.928044 0.675132 -0.8407368 2.354648 -3.830153 1.723775 -4.300163 -0.03446288 1.820731 -2.29821 0.814167 -5.727204 -2.155788 -3.206585 0.9020016 -1.334648 0.8686273 -3.970993 0.8503637 -1.263654 1.231372 0.4786537 4.496888 4.309707 1 144
-0.7786096 1.643729 0.3010466 1.648463 0.3116042 0.4404063 1.406379 -2.129341 0.7155661 -0.1528974 2.755044 -3.423044 2.748814 1.399958 1.624667 2.262401 -0.11075 4.042717 -3.765109 0.8467893 -0.9436964 2.078058 -3.592544 1.430646 -4.053291 -0.3226131 1.570738 -2.290967 0.4844325 -5.44343 -2.685832 -3.182564 0.484344 -1.411034 0.4885836 -3.828211 0.4292729 -1.228341 0.7625956 0.09935507 4.220715 5.145923 1 148
-0.481813 1.786821 0.296348 1.802969 0.6391358 0.7191093 1.536664 -1.783242 0.7171888 0.1028362 2.698866 -3.309257 2.672805 1.346459 1.801684 2.265232 -0.06578407 3.963142 -3.517437 0.8206618 -1.074639 1.784734 -3.335282 1.149622 -3.451641 -0.7537228 1.241438 -2.243826 0.1534135 -5.074817 -3.195565 -3.139622 -0.009231524 -1.453498 0.03613973 -3.62928 -0.0731065 -1.20759 0.2630042 -0.3759241 3.758855 6.618134 1 152
-0.2691499 1.835964 0.2564374 1.874646 1.011938 0.9111934 1.630569 -1.652163 0.6046594 0.2100551 2.665814 -3.405488 2.603074 1.390235 2.095544 2.35219 0.01512679 3.961121 -3.349919 0.8174598 -1.129538 1.647043 -3.07516 0.9729704 -2.797741 -1.290678 0.9542898 -2.163726 -0.06791279 -4.735174 -3.719581 -3.116154 -0.5291278 -1.414402 -0.4947758 -3.425815 -0.5891383 -1.239725 -0.2478564 -0.7437131 3.576432 8.070172 1 156
-0.2556988 1.92698 0.3460824 1.978548 1.374138 1.200696 1.767135 -1.747378 0.6533331 0.4617309 2.775696 -3.437563 2.689926 1.490242 2.442178 2.525116 0.1544747 4.0737 -3.171488 1.264115 -1.116975 1.657645 -2.975018 0.9690699 -2.501839 -1.642038 0.7152536 -2.219769 -0.1952071 -4.595893 -4.110409 -3.108754 -0.9312151 -1.387179 -0.9669893 -3.376013 -1.01701 -1.375714 -0.7089425 -1.012343 3.907362 7.480018 1 160
-0.3761356 2.076727 0.5965763 2.119406 1.635394 1.597552 1.960303 -1.96688 1.045496 0.6506646 2.950096 -3.438076 2.875908 1.535779 2.685701 2.719743 0.2745225 4.195294 -3.157832 1.873817 -1.140071 1.607881 -3.106554 1.057939 -2.610131 -1.572 0.4769547 -2.483401 -0.3890542 -4.666059 -4.25341 -3.192414 -1.189833 -1.501253 -1.31751 -3.483824 -1.318515 -1.552019 -1.065543 -1.324384 4.621074 6.5481 1 164
-0.5198626 2.15905 0.8810803 2.185481 1.698141 1.813617 2.128484 -2.318849 1.673435 0.4388288 3.181032 -3.845099 3.16275 1.494131 2.716423 2.91967 0.3129018 4.248497 -3.547488 2.184237 -1.23864 1.395705 -3.380729 1.169277 -2.893305 -1.024193 0.2601209 -2.816225 -0.679394 -4.780037 -4.171695 -3.313383 -1.323926 -1.733719 -1.55092 -3.534686 -1.475284 -1.633338 -1.237049 -1.645168 5.584711 7.05549 1 168
-0.4869877 2.029925 1.30888 2.027522 1.631472 1.567794 2.170506 -2.631761 2.264035 -0.01258366 3.439664 -4.425526 3.480464 1.435222 2.661733 3.151816 0.340011 4.292377 -3.863975 2.300974 -1.331809 1.186823 -3.521026 1.36326 -3.048239 -0.1587491 0.1279182 -2.994077 -0.8632126 -4.78528 -3.891381 -3.205622 -1.269253 -1.881157 -1.565754 -3.418323 -1.420518 -1.576997 -1.123962 -1.773448 6.479576 5.989661 1 172
0.02176909 1.799431 1.920389 1.7477 1.660881 1.114706 2.122916 -2.568437 2.552896 -0.3316075 3.47706 -4.644553 3.514773 1.451908 2.738407 3.434376 0.389587 4.371503 -3.789156 2.416949 -1.355641 1.117822 -3.441246 1.623165 -3.149801 0.5950355 0.05967987 -2.987678 -0.8632212 -4.77301 -3.542883 -2.935448 -1.109405 -1.853047 -1.380163 -3.287837 -1.238277 -1.507285 -0.8420587 -1.66796 6.785992 2.351911 1 176
0.7691255 1.715648 2.389637 1.63038 1.855648 1.008175 2.15397 -2.095659 2.519758 -0.3782438 3.222465 -4.462478 3.209454 1.520266 2.941066 3.684011 0.4436804 4.432283 -3.657058 2.456075 -1.340467 1.089427 -3.36361 1.794583 -3.425445 0.8024254 0.008411721 -2.984068 -0.8522739 -4.881985 -3.378582 -2.839649 -1.059782 -1.786451 -1.25455 -3.272629 -1.156599 -1.547391 -0.654403 -1.516027 6.402733 -0.1418421 1 180
1.185526 1.851112 2.625197 1.765898 2.090726 1.408684 2.33328 -1.525333 2.411257 -0.2128685 2.920777 -3.899979 2.876714 1.513003 3.099028 3.796108 0.536677 4.424893 -3.481003 2.433362 -1.32545 1.000145 -3.413254 1.82653 -3.710401 0.5647549 -0.01229766 -3.082499 -0.9265143 -5.003389 -3.43078 -2.906313 -1.176974 -1.82247 -1.322597 -3.346434 -1.253677 -1.67983 -0.6609446 -1.524414 5.716922 -0.6631489 1 184
1.233307 2.094282 2.802863 2.018558 2.304326 1.928223 2.501363 -1.133239 2.424414 0.07440359 2.723526 -3.017439 2.682233 1.364995 3.124331 3.765602 0.6876664 4.334382 -3.110593 2.453285 -1.323349 0.865178 -3.520076 1.780778 -3.855938 0.3285618 0.003531597 -3.207093 -1.010403 -5.051095 -3.474458 -2.984548 -1.315589 -1.969831 -1.446099 -3.485716 -1.386828 -1.849483 -0.7735481 -1.730183 5.114626 -0.9648737 1 188
1.040322 2.274723 2.858064 2.222759 2.477751 2.143799 2.496306 -0.8392745 2.457859 0.4944055 2.531824 -2.088869 2.516436 1.137906 3.124824 3.633513 0.9128348 4.133883 -2.70416 2.301409 -1.303449 0.7607086 -3.504878 1.652081 -3.939477 0.11398 0.07234915 -3.222039 -1.021703 -5.120941 -3.46373 -3.107606 -1.378109 -2.078538 -1.52804 -3.631262 -1.448211 -2.01667 -0.8944964 -1.952775 4.565933 -0.6793957 1 192
0.5520321 2.387184 2.80721 2.371021 2.561628 2.173327 2.425503 -0.4621999 2.403031 1.020383 2.27328 -1.302611 2.300802 0.9047226 3.224615 3.458826 1.191739 3.917366 -2.307653 1.888552 -1.225572 0.7886217 -3.31822 1.531802 -4.036088 -0.04030284 0.2459109 -3.059917 -0.8852887 -5.286041 -3.418689 -3.206532 -1.334149 -2.001642 -1.517001 -3.733976 -1.42039 -2.095838 -0.934058 -1.996418 3.928525 -0.7734881 1 196
-0.1503772 2.532761 2.755241 2.534137 2.574645 2.301977 2.432734 -0.2021564 2.353271 1.488429 2.114034 -0.7806043 2.160459 0.6483856 3.355349 3.257137 1.397527 3.850449 -2.008188 1.694914 -1.134016 0.8856047 -3.200601 1.595754 -4.284742 0.2035252 0.5114908 -2.847085 -0.6324629 -5.584883 -3.246051 -3.288519 -1.161675 -1.851518 -1.380527 -3.966441 -1.282644 -2.095616 -0.8362633 -1.922989 3.426283 -2.216848 1 200
-0.672843 2.666993 2.654463 2.669042 2.627209 2.474542 2.468021 -0.1804923 2.211119 1.882908 2.186516 -0.6784831 2.206966 0.3124424 3.45137 3.013329 1.517659 3.900132 -1.995727 1.914597 -1.09908 0.8085778 -3.208814 1.704633 -4.50016 0.4318679 0.7390854 -2.720662 -0.5071197 -5.911739 -3.140204 -3.549913 -1.024033 -1.814742 -1.277792 -4.417684 -1.157118 -2.15616 -0.7182195 -1.950775 2.945791 -2.105442 1 204
-0.5305492 2.700113 2.627043 2.703474 2.807216 2.650242 2.483009 -0.1478197 1.807503 2.442288 2.360437 -1.08998 2.353231 -0.109747 3.630888 2.797714 1.741275 3.941812 -2.110798 2.121573 -1.11939 0.4751551 -3.087904 1.596546 -4.19692 0.0607831 0.8007317 -2.596766 -0.654808 -6.017195 -3.337822 -3.891042 -1.106843 -1.842567 -1.356369 -4.833586 -1.234527 -2.29938 -0.7356089 -2.143765 2.042356 0.2999648 1 208
0.368778 2.655053 2.844567 2.658359 3.139421 3.046542 2.538658 -0.07668802 1.339172 3.185695 2.472541 -1.90062 2.469366 -0.5553107 3.9801 2.71717 2.059216 3.913165 -2.255695 1.977075 -1.223466 0.03664209 -2.826187 1.291586 -3.540518 -0.529494 0.6416072 -2.454017 -0.9787288 -6.000977 -3.686749 -4.207346 -1.355266 -1.869665 -1.57617 -5.120725 -1.492297 -2.502038 -0.8973257 -2.420254 0.9766431 3.158207 1 212
1.573641 2.621793 3.163615 2.614813 3.54175 3.725657 2.675436 -0.1654944 1.058355 3.707625 2.489235 -2.802521 2.493571 -0.9352057 4.348824 2.760586 2.208998 3.759602 -2.605662 1.662809 -1.457636 -0.363685 -2.667632 0.9723009 -3.125058 -0.8307077 0.3094329 -2.446867 -1.332805 -6.158697 -3.932947 -4.615609 -1.55112 -1.957266 -1.762687 -5.44102 -1.706477 -2.789268 -1.072265 -2.625003 0.3331224 6.324466 1 216
2.35017 2.626618 3.330362 2.599601 3.786871 4.348407 2.791353 -0.3540646 1.003664 3.757803 2.381318 -3.488651 2.370378 -1.179942 4.534582 2.767385 2.147639 3.519386 -3.087369 1.579868 -1.705598 -0.6732112 -2.731821 0.7802572 -3.125224 -0.8097674 0.03051228 -2.569865 -1.587008 -6.354218 -3.951932 -4.938516 -1.503354 -2.0574 -1.725427 -5.674047 -1.694746 -3.027548 -1.070648 -2.575738 0.1922024 8.987763 1 220
2.42437 2.595482 3.414001 2.531018 3.766994 4.593406 2.74373 -0.3606779 1.153611 3.496147 2.155042 -3.636725 2.134748 -1.264546 4.552645 2.619963 2.060354 3.34341 -3.449545 1.727204 -1.83035 -0.8880875 -2.961802 0.7184096 -3.481146 -0.6341352 -0.03165276 -2.71243 -1.708683 -6.364464 -3.796567 -4.993378 -1.271821 -2.114573 -1.512652 -5.666497 -1.516422 -3.078598 -0.8896647 -2.34509 0.3002212 10.17879 1 224
1.924653 2.436827 3.597231 2.309313 3.620144 4.353477 2.548025 -0.1773516 1.428527 3.093755 1.966745 -3.127288 1.959461 -1.195111 4.539266 2.416344 2.009458 3.331558 -3.556002 1.815355 -1.862704 -1.000543 -3.159078 0.6839859 -3.990507 -0.4924866 0.03362121 -2.816151 -1.759517 -6.246952 -3.634296 -4.918352 -1.076368 -2.162993 -1.335121 -5.551242 -1.341625 -2.99145 -0.7130103 -2.158564 0.5370991 10.66188 1 228
1.057989 2.202286 3.665238 2.027828 3.491627 3.711036 2.37286 -0.01957853 1.592501 2.678937 1.892716 -2.386435 1.908584 -0.9877832 4.588905 2.361658 1.949699 3.434755 -3.362031 1.735308 -1.864221 -1.008135 -3.092709 0.5861105 -4.193183 -0.4189877 0.08258326 -2.800218 -1.780167 -5.992903 -3.546319 -4.729939 -1.036836 -2.130323 -1.295714 -5.31002 -1.267794 -2.84367 -0.6387694 -2.031364 0.8041195 10.59244 1 232
0.2659485 2.037779 3.358717 1.880883 3.392445 3.109819 2.298457 -0.03799945 1.523118 2.389715 1.861853 -2.138551 1.903553 -0.7235947 4.641308 2.493236 1.857486 3.488189 -3.168034 1.588541 -1.865669 -0.967762 -2.77512 0.4071151 -3.987767 -0.439438 0.040835 -2.693302 -1.829542 -5.582244 -3.547222 -4.428995 -1.109437 -1.983226 -1.364436 -4.830683 -1.299203 -2.70013 -0.6466649 -1.916262 1.035402 10.46094 1 236
-0.5182288 1.981665 2.915184 1.878743 3.295293 3.024394 2.273718 -0.2944537 1.406998 2.139969 1.862811 -2.505651 1.910303 -0.4684245 4.521069 2.696465 1.726306 3.405352 -3.377763 1.407783 -1.890097 -0.918662 -2.490094 0.2153313 -3.84595 -0.6524979 -0.0542156 -2.662958 -1.981146 -5.206743 -3.621251 -4.242057 -1.155007 -1.853178 -1.445886 -4.336694 -1.33919 -2.608545 -0.6692538 -1.837325 1.426153 11.88781 1 240
-1.690581 2.064219 2.689254 1.997359 3.267327 3.458829 2.350717 -0.5445901 1.317134 1.793654 1.840124 -2.765431 1.864608 -0.1601061 4.320047 2.939456 1.628382 3.297882 -3.689038 1.131336 -1.878149 -0.8483374 -2.388664 0.07847812 -3.962598 -0.9578413 -0.09107303 -2.735525 -2.217046 -4.939933 -3.672105 -4.151663 -1.168911 -1.760745 -1.510394 -4.046118 -1.360318 -2.488757 -0.6766794 -1.74691 1.88429 13.52837 1 244
-2.859211 2.297202 2.560632 2.256001 3.41313 3.916686 2.571945 -0.4970669 1.106452 1.477209 1.666935 -2.585699 1.677353 0.1704993 4.295548 3.207516 1.626019 3.223142 -3.677295 0.8130211 -1.811906 -0.8265303 -2.353734 -0.04658749 -4.007279 -1.188181 -0.0909631 -2.775805 -2.491326 -4.632864 -3.694381 -3.960268 -1.278924 -1.632515 -1.612818 -3.809606 -1.459735 -2.280434 -0.7372282 -1.6416 1.943631 13.72901 1 248
-3.072666 2.56772 2.245074 2.574975 3.731867 3.914619 2.796313 -0.1566587 0.7291922 1.336659 1.442043 -2.520926 1.482811 0.3422164 4.44774 3.439258 1.595731 3.082342 -3.737267 0.5389461 -1.831378 -0.9610178 -2.361187 -0.2425945 -3.950189 -1.363616 -0.2255725 -2.757348 -2.822946 -4.339954 -3.797737 -3.869102 -1.553343 -1.521241 -1.806925 -3.543742 -1.706062 -2.138397 -0.9327981 -1.640826 1.39838 15.18759 1 252
-2.074783 2.741685 1.892708 2.799447 4.049039 3.488186 2.869824 0.2762669 0.3280156 1.195659 1.466296 -2.993384 1.563958 0.2987415 4.581067 3.596134 1.379593 2.873232 -4.353653 0.4536458 -1.999006 -1.191828 -2.497525 -0.4606932 -4.132856 -1.520273 -0.5167234 -2.758264 -3.164254 -4.267961 -3.950497 -4.130929 -1.995763 -1.468815 -2.139281 -3.368787 -2.100952 -2.16731 -1.277126 -1.744722 0.5776605 19.84434 1 256
-0.8599526 2.729002 1.842636 2.793558 4.146722 3.034887 2.767799 0.5450762 0.1431517 0.9578747 1.775177 -3.548455 1.903456 0.1452629 4.521327 3.626024 1.055895 2.680029 -4.969048 0.7090822 -2.15601 -1.376489 -2.614914 -0.5610201 -4.332183 -1.569648 -0.71229 -2.738408 -3.370937 -4.253859 -3.982455 -4.384662 -2.444217 -1.394615 -2.509303 -3.237897 -2.491373 -2.197436 -1.640601 -1.804964 0.05342171 23.72024 1 260
-0.4600539 2.541298 2.02966 2.579116 3.995217 2.787738 2.558557 0.5604388 0.2283802 0.9519325 2.05927 -3.517006 2.165207 0.01657125 4.286686 3.500043 0.9024307 2.494395 -4.546063 1.061298 -2.126378 -1.486393 -2.390517 -0.5147505 -3.776678 -1.372341 -0.6289948 -2.553515 -3.405494 -3.820786 -3.836173 -3.997219 -2.641068 -1.16629 -2.697003 -2.928114 -2.659662 -2.00143 -1.819257 -1.720147 0.01576766 21.33133 1 264
-0.697051 2.312418 2.084248 2.336391 3.790709 2.612483 2.307038 0.4589616 0.2926326 1.322784 2.052472 -3.077774 2.110954 -0.01589148 4.089828 3.261165 1.049291 2.25512 -3.229004 0.9179869 -1.923481 -1.558917 -1.776292 -0.5008575 -2.410748 -0.9240907 -0.3840857 -2.182586 -3.36936 -2.916615 -3.634451 -3.049032 -2.6071 -0.7614252 -2.68652 -2.396678 -2.627761 -1.592655 -1.805712 -1.542772 0.06599223 14.35037 1 268
-0.9408919 2.211426 1.977387 2.241062 3.821133 2.54279 2.111758 0.4945811 0.09349788 1.852176 1.648678 -2.746183 1.672821 0.03764001 4.102835 3.039767 1.32674 1.992872 -2.131332 0.1356327 -1.683717 -1.569578 -1.129575 -0.6438457 -1.237754 -0.4210951 -0.1678046 -1.776406 -3.311718 -2.149391 -3.481382 -2.301058 -2.557813 -0.3733239 -2.631493 -1.977033 -2.563879 -1.222021 -1.753325 -1.395829 -0.2426801 9.10626 1 272
-1.417504 2.259385 2.113949 2.285524 4.145271 2.856776 2.056011 0.8981012 -0.2577327 2.442906 0.9247578 -2.363219 0.9414443 0.1572516 4.311334 2.975796 1.569769 1.81117 -1.55205 -0.6727909 -1.459328 -1.442822 -0.7416906 -0.8073584 -0.876417 -0.239705 -0.01908449 -1.427202 -3.178535 -1.904855 -3.420921 -2.027834 -2.588816 -0.115202 -2.611308 -1.887949 -2.545445 -0.9882609 -1.730212 -1.235532 -0.9513839 6.713715 1 276
-2.370625 2.284125 2.673007 2.282308 4.458054 3.32243 2.036056 1.666633 -0.5250385 3.064962 0.1553208 -1.545061 0.190967 0.3198085 4.536301 3.009685 1.824898 1.747517 -0.9159303 -1.004322 -1.189257 -1.197508 -0.5083653 -0.8916113 -0.8281167 -0.685123 0.139064 -1.117497 -2.963957 -1.87963 -3.517451 -1.818145 -2.704003 0.1037769 -2.637636 -1.868256 -2.588516 -0.7385024 -1.743862 -0.9671555 -1.835919 4.226477 1 280
-3.011346 2.214016 3.334877 2.17449 4.506995 3.439866 1.938871 2.460502 -0.5376382 3.582236 -0.3835206 -0.4200746 -0.3233727 0.458754 4.583128 2.977326 2.152765 1.758247 -0.04148418 -0.9349386 -0.8540758 -0.952186 -0.2770809 -0.9396129 -0.6722996 -1.442167 0.3752529 -0.9051151 -2.731515 -1.804889 -3.708444 -1.478418 -2.852657 0.297545 -2.699695 -1.741711 -2.679 -0.4482303 -1.805171 -0.7337248 -2.516396 0.6398737 1 284
-2.499718 2.192407 3.747386 2.133997 4.358369 3.357456 1.84609 2.910613 -0.3511158 3.842448 -0.6325436 0.5276174 -0.5564185 0.4802072 4.435662 2.86124 2.448545 1.763237 0.5793012 -0.7598521 -0.5679836 -0.7910683 -0.1356216 -0.9612032 -0.7027582 -1.988061 0.6430933 -0.8871231 -2.537332 -1.841965 -3.84229 -1.324954 -2.972141 0.3566345 -2.774596 -1.750828 -2.786864 -0.296697 -1.915268 -0.7483726 -2.804924 -2.054549 1 288
-1.014937 2.299629 3.875699 2.246272 4.180008 3.582008 1.852616 2.94537 -0.2028909 3.741839 -0.7671857 0.8076835 -0.6802128 0.3706782 4.244847 2.77405 2.533992 1.73028 0.4527102 -0.6999395 -0.4604174 -0.6980205 -0.1889254 -0.9362602 -1.117329 -2.363407 0.8070337 -1.058609 -2.409157 -2.143256 -3.921585 -1.643436 -3.06021 0.2162521 -2.853798 -2.08812 -2.897717 -0.3986826 -2.048415 -0.9886914 -2.846881 -1.172791 1 292
0.4145453 2.481006 3.914226 2.431203 4.065114 4.121706 1.956483 2.697297 -0.08751158 3.357096 -0.7723644 0.250683 -0.6827627 0.2063096 4.138204 2.796015 2.365401 1.709863 -0.3346453 -0.5950122 -0.5904494 -0.5993706 -0.4296984 -0.8533298 -1.592709 -2.69556 0.7496561 -1.408142 -2.327489 -2.614843 -4.005436 -2.331009 -3.126242 -0.1370596 -2.944299 -2.671113 -3.006084 -0.8000978 -2.173895 -1.32047 -2.640724 3.085476 1 296
1.19435 2.808902 3.998773 2.746726 4.071587 4.698462 2.207542 2.381201 0.122527 2.890979 -0.4253249 -0.7577788 -0.3229114 0.07167613 4.152816 2.887896 2.106465 1.760475 -1.243093 0.003648389 -0.9214785 -0.4957088 -0.8160582 -0.6965278 -1.813554 -2.733574 0.4611794 -1.945203 -2.28142 -3.157337 -4.066323 -3.120973 -3.242812 -0.7053981 -3.093925 -3.382878 -3.163564 -1.507131 -2.352072 -1.769138 -2.172084 7.621121 1 300
1.713979 3.394161 4.045054 3.314537 4.243569 5.235865 2.641952 2.232451 0.3425142 2.496146 0.09661336 -1.728184 0.2283402 0.02994178 4.278319 2.973295 1.946001 1.882967 -1.936838 1.044778 -1.245771 -0.4460668 -1.248749 -0.5049841 -1.838095 -2.386215 0.0789691 -2.565114 -2.309693 -3.756091 -4.095587 -3.875803 -3.477571 -1.413093 -3.327641 -4.153119 -3.413983 -2.348127 -2.630075 -2.411307 -1.721013 10.61377 1 304
1.926598 4.010015 3.889817 3.912503 4.453264 5.505493 3.041552 2.212885 0.5856461 2.20832 0.4149702 -2.44923 0.5546536 0.02116624 4.417974 2.976267 1.858918 1.996565 -2.513692 1.878382 -1.393182 -0.4344071 -1.625297 -0.3453828 -1.931798 -1.838808 -0.2309512 -3.112669 -2.36183 -4.336014 -4.018632 -4.55698 -3.60693 -2.102274 -3.457341 -4.835408 -3.568182 -3.082232 -2.841964 -3.10815 -1.360515 13.24688 1 308
1.158861 4.246171 3.580321 4.123214 4.423132 5.173207 3.089178 2.055399 1.046604 2.081131 0.4724138 -2.572587 0.5920548 -0.02108535 4.457124 2.844687 1.748557 2.066163 -2.845139 2.146392 -1.37799 -0.3396047 -1.864719 -0.1545677 -2.255794 -1.119077 -0.34148 -3.443268 -2.237124 -4.754489 -3.656922 -4.961524 -3.31874 -2.572295 -3.232449 -5.210909 -3.345016 -3.551507 -2.740422 -3.517972 -0.7682329 14.89824 1 312
-0.1069883 4.008404 3.44751 3.846691 4.111427 4.42776 2.749487 1.810027 1.683963 2.218121 0.3862084 -1.921669 0.4920059 -0.007820428 4.382607 2.629768 1.669851 2.126188 -2.606522 2.097068 -1.291728 -0.08615379 -1.906227 0.09427447 -2.637463 -0.2755475 -0.2450403 -3.508583 -1.89618 -4.933086 -3.086364 -4.93318 -2.761228 -2.734815 -2.775197 -5.277202 -2.838842 -3.755553 -2.369982 -3.485671 0.07025972 13.18942 1 316
-0.6876757 3.622133 3.627122 3.407902 3.767308 3.766357 2.295983 1.717516 2.188119 2.394273 0.3516139 -1.220068 0.4624657 0.07435092 4.183775 2.371654 1.605526 2.178267 -2.235059 2.101845 -1.291408 0.185188 -1.916754 0.3182724 -2.930975 0.4130539 -0.1324217 -3.535004 -1.553367 -5.000898 -2.597563 -4.794124 -2.314836 -2.770609 -2.389318 -5.343361 -2.390208 -3.843379 -1.997445 -3.244053 0.7031811 10.45261 1 320
-0.5431584 3.360345 3.873821 3.089993 3.536235 3.382591 1.974618 1.747497 2.368002 2.26883 0.5392251 -1.236302 0.6518195 0.07090208 3.844326 2.048992 1.404758 2.254836 -2.498769 2.257036 -1.464708 0.2848343 -2.181698 0.574119 -3.385977 0.7836972 -0.1543462 -3.726128 -1.322631 -5.185923 -2.245332 -4.910149 -2.017444 -2.856481 -2.086211 -5.577573 -2.078078 -3.852121 -1.676993 -3.016547 0.8259689 10.87418 1 324
-0.3738994 3.13409 3.942818 2.82735 3.344661 3.131756 1.781484 1.688282 2.367988 1.842394 0.7993745 -1.809706 0.8988638 -0.09535993 3.467986 1.725417 1.06807 2.376729 -3.391782 2.329854 -1.730354 0.2116065 -2.682293 0.8977779 -4.128643 0.9621189 -0.2620916 -3.922929 -1.172898 -5.477402 -1.954996 -5.203137 -1.752696 -2.901048 -1.795098 -5.7708 -1.811965 -3.697585 -1.352211 -2.769392 0.6669986 14.59068 1 328
-0.6272652 2.831429 3.719071 2.526077 3.129702 2.827684 1.617796 1.38009 2.369791 1.268029 0.9325553 -2.405649 1.025126 -0.3483171 3.157866 1.505258 0.6900454 2.480449 -4.331978 2.179358 -1.988516 0.09016182 -3.117038 1.142879 -4.78185 1.103809 -0.3691315 -3.919128 -1.072365 -5.648541 -1.761606 -5.410484 -1.518761 -2.778597 -1.568514 -5.690668 -1.570126 -3.417333 -1.098173 -2.4615 0.6715683 19.2368 1 332
-1.192452 2.578299 3.280457 2.297236 2.926546 2.569433 1.488582 0.901899 2.359723 0.7243486 1.093005 -2.756408 1.185846 -0.6206053 2.846737 1.356467 0.2613485 2.509989 -4.856818 2.139327 -2.256192 -0.001835975 -3.315827 1.224531 -4.986425 1.24893 -0.4861961 -3.82494 -0.9976769 -5.62336 -1.641392 -5.400363 -1.29899 -2.579163 -1.385279 -5.390352 -1.338143 -3.161871 -0.9514486 -2.191565 0.8706055 22.39399 1 336
-1.633934 2.546517 2.752836 2.29895 2.759778 2.5931 1.454649 0.580291 2.309634 0.4874017 1.337669 -2.732116 1.415254 -0.8813692 2.497232 1.149768 -0.1357089 2.454374 -4.822724 2.493382 -2.538813 -0.08830705 -3.346045 1.210383 -4.782506 1.355259 -0.6085322 -3.84122 -0.9704508 -5.477535 -1.530191 -5.188625 -1.108013 -2.44402 -1.224645 -5.042265 -1.148933 -3.009049 -0.8859362 -2.043504 0.9097992 22.87816 1 340
-2.330866 2.673872 2.111548 2.473978 2.614249 2.713078 1.503066 0.5397398 2.28823 0.7500586 1.390229 -2.407216 1.441311 -1.057339 2.320029 0.8672008 -0.2731849 2.384192 -4.284463 3.046952 -2.694132 -0.2072994 -3.248401 1.23863 -4.260376 1.525834 -0.6712059 -3.88621 -0.9966241 -5.164631 -1.377235 -4.737229 -0.972711 -2.339311 -1.111872 -4.607447 -1.023736 -2.845352 -0.8627512 -1.960688 0.7481937 20.6898 1 344
-3.735759 2.790298 1.432976 2.639136 2.513871 2.610178 1.600244 0.4499185 2.41028 1.326504 1.272587 -2.24681 1.316693 -1.104409 2.502172 0.6257597 -0.128961 2.398184 -3.548598 3.611375 -2.693222 -0.3625045 -3.070328 1.381078 -3.460299 2.030444 -0.7575575 -3.817661 -1.05951 -4.728107 -1.183823 -4.116871 -0.8730145 -2.232968 -1.041176 -4.111964 -0.9405769 -2.603912 -0.8481333 -1.894083 0.8411177 16.80743 1 348
-4.715814 2.860152 1.03142 2.734576 2.527291 2.461343 1.715229 0.1874201 2.613009 1.780279 1.307473 -2.463 1.374675 -1.071707 2.907902 0.495688 0.0647198 2.460812 -3.027542 4.185182 -2.708721 -0.5203234 -2.963261 1.491019 -2.591781 2.596976 -1.02607 -3.703472 -1.202557 -4.427596 -1.185266 -3.70842 -0.9716116 -2.210689 -1.153197 -3.853845 -1.047767 -2.46144 -0.9731865 -1.912807 1.22434 13.88054 1 352
-4.419611 2.866437 1.170539 2.724487 2.611217 2.546318 1.748905 0.06834578 2.653797 1.858788 1.622821 -2.702179 1.712378 -1.000228 3.274081 0.4400434 0.1323345 2.468284 -2.718665 4.741335 -2.791974 -0.5775947 -2.914704 1.423752 -1.804037 2.584482 -1.394234 -3.570292 -1.408843 -4.312693 -1.479725 -3.622894 -1.358578 -2.248914 -1.504053 -3.875419 -1.4214 -2.499974 -1.300764 -1.999208 1.395212 12.88249 1 356
-3.800457 2.790566 1.58884 2.601692 2.578685 2.725024 1.671378 0.111159 2.535658 1.612665 2.081809 -2.885383 2.178481 -0.8690298 3.471946 0.3828123 0.1034173 2.422764 -2.569846 5.142912 -2.842035 -0.5072355 -2.82031 1.266078 -1.210738 2.011806 -1.622526 -3.417547 -1.582848 -4.259548 -1.803854 -3.650522 -1.728808 -2.288914 -1.826614 -3.943993 -1.801606 -2.583969 -1.601398 -2.041054 1.40018 12.98023 1 360
-3.637358 2.708038 1.683353 2.490189 2.388292 2.727108 1.582227 0.03152466 2.486452 1.202497 2.390913 -3.311482 2.504159 -0.6884889 3.488016 0.2793734 0.07987057 2.399256 -2.916724 5.017553 -2.821613 -0.4660538 -2.754417 1.081178 -1.045246 1.398388 -1.666506 -3.389924 -1.75267 -4.270144 -2.05156 -3.845571 -1.910535 -2.409252 -2.025577 -3.987093 -2.021039 -2.637685 -1.76259 -2.065518 1.65626 15.84238 1 364
-3.593511 2.707726 1.278291 2.502928 2.192904 2.498355 1.564192 -0.190491 2.563182 0.7795624 2.376497 -3.819062 2.517844 -0.4722136 3.387437 0.1935874 0.1075111 2.431246 -3.629864 4.188415 -2.723472 -0.5038032 -2.772443 0.827273 -1.258133 1.110521 -1.658563 -3.481184 -1.955414 -4.325966 -2.265756 -4.17562 -2.017026 -2.588032 -2.205463 -3.967702 -2.145795 -2.634576 -1.896311 -2.149443 2.170335 21.03201 1 368
-3.345103 2.765356 0.671409 2.594814 2.03956 2.1795 1.600101 -0.397052 2.692537 0.4386517 2.095315 -3.843714 2.239484 -0.1378926 3.285069 0.249123 0.1618726 2.538496 -3.992266 3.067476 -2.509742 -0.4359088 -2.780483 0.5875189 -1.564909 1.232921 -1.64038 -3.471874 -2.039021 -4.337279 -2.32649 -4.290491 -2.022876 -2.647812 -2.276461 -3.795033 -2.162077 -2.565063 -1.994419 -2.231206 2.837549 23.53081 1 372
-3.174461 2.844739 0.2473235 2.695812 1.883643 2.005152 1.657836 -0.5150344 2.855947 0.1268487 1.761715 -3.312675 1.878878 0.3609402 3.252191 0.4921993 0.1747724 2.774792 -3.854562 2.236198 -2.216575 -0.1647009 -2.758537 0.5108591 -1.930027 1.552209 -1.584212 -3.319477 -1.904938 -4.333128 -2.244488 -4.174162 -1.943642 -2.591505 -2.227041 -3.607893 -2.105386 -2.555872 -2.01734 -2.244596 3.651988 21.8162 1 376
-3.434494 2.930279 0.327579 2.760792 1.746038 2.022692 1.747834 -0.5603496 3.102434 -0.2506505 1.711959 -2.771082 1.82301 0.8971772 3.252601 0.8405406 0.1240205 3.137243 -3.703281 2.202127 -1.94961 0.1929989 -2.808029 0.6328627 -2.450437 1.778645 -1.512307 -3.189513 -1.664792 -4.40213 -2.216509 -4.108998 -1.983843 -2.611542 -2.271719 -3.596213 -2.15534 -2.700347 -2.078536 -2.276005 4.582062 18.88279 1 380
-3.965187 2.921231 0.7996018 2.693098 1.621301 1.939359 1.830011 -0.6031749 3.444842 -0.6886094 2.040615 -2.64187 2.170125 1.300957 3.17186 1.126369 0.03821924 3.506687 -3.803779 3.054784 -1.773703 0.4940727 -2.928106 0.8534496 -2.948604 1.847241 -1.448235 -3.198941 -1.452432 -4.537272 -2.284933 -4.193896 -2.179505 -2.77791 -2.461674 -3.722189 -2.317953 -2.932053 -2.23124 -2.423282 5.525019 17.13573 1 384
-4.268328 2.908823 1.084885 2.629619 1.485035 1.589651 1.896489 -0.6533533 3.701659 -1.198715 2.441435 -3.006791 2.550009 1.545989 2.984296 1.286283 -0.09251473 3.798954 -4.080329 4.118123 -1.679667 0.7146106 -3.009344 1.037687 -3.08925 1.838994 -1.384058 -3.308186 -1.309585 -4.669849 -2.369106 -4.353473 -2.393566 -2.972252 -2.645777 -3.872007 -2.473365 -3.121956 -2.396674 -2.621671 6.194231 17.16315 1 388
-4.218248 3.068947 0.854518 2.787235 1.36783 1.257304 1.984124 -0.8354418 3.714303 -1.768236 2.616481 -3.786021 2.652339 1.713913 2.803563 1.44939 -0.3014075 4.049253 -4.456344 4.623703 -1.634023 0.9233235 -3.046687 1.150191 -2.880659 1.806908 -1.311328 -3.347658 -1.18486 -4.718523 -2.426215 -4.462218 -2.532888 -3.036954 -2.735437 -3.921044 -2.59281 -3.167737 -2.520646 -2.722219 6.569934 18.21429 1 392
-4.133733 3.272927 0.4674173 3.025587 1.381178 1.276673 2.066469 -1.232768 3.600311 -2.107616 2.56869 -4.537471 2.526649 1.865374 2.740923 1.735974 -0.5275977 4.266605 -4.765192 4.484076 -1.61768 1.13389 -3.057589 1.189693 -2.621958 1.734356 -1.286629 -3.240994 -1.04857 -4.652051 -2.500596 -4.478526 -2.646331 -2.937079 -2.820456 -3.840674 -2.73389 -3.138616 -2.653451 -2.726528 6.899974 19.06929 1 396
-3.975109 3.329889 0.4274896 3.107202 1.614041 1.543447 2.136767 -1.551232 3.544117 -1.96278 2.476285 -4.7581 2.381511 1.995639 2.752585 2.103151 -0.658392 4.409246 -4.694278 4.160002 -1.604623 1.257659 -2.936681 1.105966 -2.337902 1.591035 -1.372857 -3.093446 -0.9805838 -4.486827 -2.678731 -4.425379 -2.873701 -2.764864 -3.033387 -3.725119 -2.974553 -3.166621 -2.904744 -2.821311 7.131301 18.71393 1 400
-3.726742 3.159732 0.6289535 2.941708 1.910237 1.532135 2.182378 -1.729356 3.561011 -1.521707 2.419182 -4.563378 2.31743 2.077301 2.694302 2.454088 -0.6542038 4.51263 -4.241003 3.899692 -1.527121 1.253664 -2.634816 0.9428282 -1.884449 1.433432 -1.461275 -2.95573 -0.9962327 -4.246372 -2.880914 -4.269658 -3.085308 -2.555903 -3.213722 -3.562984 -3.160144 -3.190072 -3.182414 -3.065474 7.274089 17.11431 1 404
-3.978891 2.822242 0.7123797 2.609516 2.064723 0.932269 2.166411 -1.936808 3.541098 -1.053633 2.38133 -4.389947 2.316126 2.167186 2.614024 2.783167 -0.5008888 4.663987 -3.745893 3.559763 -1.323511 1.233878 -2.268647 0.8558015 -1.461212 1.485905 -1.422813 -2.752557 -0.9734111 -4.028389 -2.886225 -4.015651 -3.01194 -2.304155 -3.091476 -3.339317 -3.040578 -3.101237 -3.233714 -3.301219 7.489186 14.76305 1 408
-4.675682 2.56299 0.6018173 2.360118 2.083327 0.13577 2.12996 -2.156417 3.483207 -0.7754921 2.369376 -4.55743 2.324169 2.330467 2.658387 3.09195 -0.2995682 4.838205 -3.618737 3.206481 -1.083753 1.30404 -2.02555 0.8883848 -1.424764 1.906423 -1.358588 -2.483241 -0.8469334 -3.982851 -2.658737 -3.864651 -2.743924 -2.111548 -2.780706 -3.218865 -2.738544 -2.998677 -3.090575 -3.450042 7.831581 12.8386 1 412
-4.848265 2.485346 0.3423148 2.301598 2.059826 -0.1914778 2.119101 -2.454215 3.467242 -0.9329898 2.32638 -5.154224 2.245611 2.51883 2.732877 3.320732 -0.2860216 4.906105 -4.11235 3.183986 -0.9776606 1.407154 -2.02215 0.9468796 -1.836212 2.357583 -1.408963 -2.257757 -0.7105948 -4.140129 -2.452892 -4.015653 -2.596783 -2.045633 -2.623559 -3.240871 -2.586078 -3.017316 -3.031895 -3.559056 8.348005 13.43321 1 416
-4.569615 2.401477 0.1165021 2.242744 1.989414 0.08098104 2.06805 -2.8754 3.511769 -1.496296 2.200918 -5.857203 2.089 2.650377 2.6527 3.406037 -0.4969798 4.81847 -4.929443 3.536148 -1.006519 1.444149 -2.174122 0.9819562 -2.335974 2.394888 -1.530514 -2.122766 -0.6881302 -4.28372 -2.472435 -4.292038 -2.666265 -2.013025 -2.710803 -3.182976 -2.647651 -3.052537 -3.121152 -3.60411 8.955932 16.58818 1 420
-4.831791 2.225242 0.1654975 2.067887 1.81355 0.5219269 1.956004 -3.22483 3.674 -2.192554 2.070225 -6.239836 1.998755 2.666657 2.423156 3.329631 -0.7193269 4.638369 -5.489079 3.72122 -1.065346 1.373127 -2.294606 0.9522644 -2.506388 2.138118 -1.64603 -2.072624 -0.7645367 -4.220563 -2.604603 -4.38201 -2.736925 -1.955763 -2.810853 -2.989616 -2.715158 -2.914282 -3.169501 -3.534781 9.454223 19.89113 1 424
-5.366346 2.144917 0.334505 1.979302 1.599926 0.8438833 1.919536 -3.283652 3.931232 -2.69278 2.033662 -6.090752 2.040875 2.543179 2.142262 3.175106 -0.7988792 4.423736 -5.614607 3.323314 -1.149549 1.160306 -2.328884 0.7675539 -2.47631 1.870303 -1.810408 -2.117806 -0.8549597 -4.107949 -2.708069 -4.3241 -2.663786 -1.937853 -2.777812 -2.854334 -2.68284 -2.636979 -3.110374 -3.435398 9.609918 21.98085 1 428
-5.12998 2.237815 0.3249976 2.102434 1.481053 1.072639 2.017504 -3.03969 4.081931 -2.745861 2.13237 -5.583343 2.176119 2.317702 1.898614 3.09822 -0.7631138 4.221522 -5.588813 2.776394 -1.320392 0.8379598 -2.370281 0.4820341 -2.664461 1.518637 -2.114441 -2.201723 -0.9576271 -4.187786 -2.839271 -4.365265 -2.59516 -1.983603 -2.736826 -2.866699 -2.657866 -2.426154 -3.076649 -3.397635 9.265981 23.5687 1 432
-4.043024 2.323905 0.2840589 2.237006 1.467521 1.208691 2.137434 -2.653646 4.046726 -2.480576 2.307368 -5.353528 2.331082 2.048696 1.769135 3.153674 -0.7094809 4.090323 -5.796496 2.556157 -1.570613 0.5460483 -2.498675 0.2831325 -3.142507 1.064175 -2.485043 -2.259918 -1.062522 -4.45766 -2.998969 -4.563801 -2.609851 -2.044876 -2.733886 -2.940054 -2.676102 -2.364677 -3.090247 -3.344603 8.586323 25.43938 1 436
-3.118524 2.250332 0.3803108 2.179026 1.393133 1.138043 2.141387 -2.411093 4.026518 -2.355406 2.463675 -5.848608 2.462294 1.747666 1.662109 3.194198 -0.7336395 4.034245 -6.470101 2.405133 -1.804867 0.3879173 -2.743378 0.2252733 -3.778979 0.8224972 -2.700006 -2.316143 -1.069838 -4.727145 -3.053247 -4.77494 -2.551301 -2.050237 -2.644591 -2.888593 -2.617117 -2.295803 -3.014127 -3.151423 8.05917 28.14621 1 440
-3.387001 2.052736 0.5386515 1.958323 1.190665 0.807059 2.034565 -2.444483 4.200722 -2.544239 2.643734 -6.677236 2.636158 1.452958 1.453495 3.106289 -0.8377571 4.065005 -7.345039 2.153345 -1.922853 0.3592865 -3.072674 0.2562014 -4.413235 0.9803079 -2.681998 -2.394532 -0.95056 -4.829657 -2.958768 -4.82481 -2.402308 -1.945449 -2.496494 -2.599569 -2.482431 -2.060523 -2.844457 -2.834135 7.962211 31.09848 1 444
-4.517818 1.920789 0.7952314 1.783105 1.057083 0.3815422 2.011292 -2.499578 4.496791 -2.661722 3.011558 -7.073156 2.992948 1.255095 1.281172 3.005475 -0.8918161 4.24347 -7.764147 2.256868 -1.933116 0.4152879 -3.368093 0.4098425 -4.848666 1.346372 -2.624665 -2.495444 -0.798991 -4.848444 -2.783715 -4.704875 -2.324644 -1.850538 -2.442963 -2.34284 -2.420554 -1.810964 -2.728282 -2.595898 8.078742 31.58822 1 448
-5.324965 1.95039 1.036722 1.777623 1.05802 0.06855388 2.157627 -2.50802 4.735629 -2.443959 3.574753 -6.948242 3.533662 1.148926 1.298924 3.009757 -0.8809777 4.510223 -7.63458 2.918548 -1.944295 0.4835366 -3.543336 0.6881142 -5.072467 1.64704 -2.717221 -2.616508 -0.6596618 -4.949523 -2.599098 -4.607643 -2.343185 -1.935187 -2.490538 -2.396786 -2.4536 -1.787596 -2.748282 -2.604084 8.241446 29.37036 1 452
-5.585704 1.962477 1.019401 1.781728 1.036695 -0.0112739 2.277046 -2.680503 4.775163 -2.122177 3.957115 -6.79579 3.898383 1.082471 1.400579 3.046407 -0.9198818 4.67555 -7.486858 3.468641 -1.996679 0.5155912 -3.593295 0.9225824 -5.214075 1.765509 -2.907423 -2.692604 -0.488562 -5.052435 -2.436254 -4.607038 -2.32414 -2.093259 -2.498157 -2.525671 -2.416039 -1.883981 -2.812639 -2.688806 8.454928 27.79299 1 456
-5.822426 1.919159 0.8146631 1.753683 0.9599162 0.2163331 2.2552 -2.733476 4.560343 -1.746394 3.789582 -6.516091 3.709804 1.0755 1.481578 3.017834 -0.9076428 4.659919 -7.314209 3.267377 -2.001595 0.5544147 -3.506717 0.9722518 -5.328913 1.749328 -3.03811 -2.629619 -0.2723299 -4.992966 -2.249344 -4.508632 -2.177458 -2.095364 -2.358118 -2.469117 -2.210369 -1.852143 -2.763302 -2.560108 8.348194 26.94935 1 460
-6.052799 2.062114 0.575324 1.933689 0.9450712 0.6044008 2.2492 -2.245306 4.169716 -1.061971 3.257513 -5.737713 3.149825 1.126659 1.590033 2.909149 -0.6566826 4.526098 -6.673933 2.715212 -1.898434 0.6018875 -3.266655 0.8733858 -5.299355 1.652394 -3.108531 -2.444885 -0.09862599 -4.734505 -2.015244 -4.150944 -2.010947 -1.93198 -2.157028 -2.289742 -2.017107 -1.669401 -2.638228 -2.264682 7.538872 23.94415 1 464
-6.126622 2.35034 0.3379116 2.268732 1.066574 0.9356381 2.349368 -1.552449 3.775503 -0.2882819 2.855418 -4.971988 2.730007 1.150059 1.690597 2.718265 -0.3156858 4.289316 -5.829894 2.548037 -1.800959 0.5373656 -2.963348 0.699582 -4.944306 1.439848 -3.282372 -2.298225 -0.09320512 -4.356192 -1.84569 -3.685346 -1.948543 -1.774803 -2.045821 -2.061928 -1.999026 -1.468017 -2.583699 -2.072744 6.444205 20.12229 1 468
-6.169928 2.524033 0.2063448 2.470432 1.277049 1.29818 2.476064 -1.158934 3.442353 0.06609463 2.765779 -4.80653 2.61336 1.08878 1.7328 2.520201 -0.1576091 3.963437 -5.301004 2.742633 -1.832044 0.3334407 -2.684892 0.475929 -4.263756 1.146695 -3.608986 -2.259727 -0.2520964 -3.999151 -1.834177 -3.335607 -1.999659 -1.686963 -2.066324 -1.793217 -2.088409 -1.337085 -2.623742 -2.018613 5.62069 18.51418 1 472
-6.284549 2.519486 0.3541281 2.460651 1.498744 1.849842 2.537573 -1.039534 3.095048 0.09557721 2.76964 -5.023987 2.576023 1.006061 1.786459 2.452993 -0.1789283 3.708393 -4.958654 2.856226 -1.905632 0.1683919 -2.372254 0.2841004 -3.454774 0.9602482 -3.909051 -2.148264 -0.4088451 -3.669591 -1.908693 -3.015109 -2.161088 -1.53428 -2.195837 -1.449952 -2.205335 -1.232789 -2.704583 -1.886828 5.063207 17.60578 1 476
-6.571146 2.389987 0.8252619 2.301101 1.695196 2.373505 2.516358 -0.9639531 2.75125 0.2273573 2.700166 -5.208353 2.518345 0.9668335 1.854685 2.560038 -0.2101034 3.681217 -4.602407 2.681446 -1.87316 0.1834895 -2.068034 0.2140218 -2.887815 0.957366 -4.002702 -1.855596 -0.4146247 -3.311927 -1.946002 -2.618128 -2.345562 -1.273262 -2.332868 -1.047844 -2.303319 -1.115245 -2.764792 -1.634301 4.641436 15.31208 1 480
-7.143883 2.206589 1.338933 2.090519 1.788777 2.495824 2.492707 -0.8811015 2.480347 0.4414552 2.652826 -5.062006 2.562814 0.9632102 1.882439 2.754239 -0.1331967 3.844507 -4.304431 2.270553 -1.701333 0.3286328 -1.888282 0.2275697 -2.830489 0.9759985 -3.860225 -1.539971 -0.2768116 -3.001991 -1.875428 -2.294309 -2.429472 -1.037727 -2.375937 -0.7309517 -2.33121 -1.038771 -2.759677 -1.461656 4.345118 12.81583 1 484
-7.812464 1.991526 1.593973 1.871029 1.735345 2.285552 2.451417 -0.9371405 2.211647 0.4477701 2.697541 -4.625187 2.702309 1.031155 1.88186 2.916823 0.0259815 4.078369 -4.138782 1.857416 -1.453574 0.507248 -1.81141 0.2569524 -3.146116 0.8390785 -3.605199 -1.314933 -0.08428238 -2.794991 -1.72083 -2.115671 -2.391094 -0.8724642 -2.321714 -0.5184126 -2.269618 -0.980105 -2.664292 -1.45226 4.230167 11.41741 1 488
-8.116014 1.710775 1.586627 1.603029 1.610102 2.095442 2.268392 -1.160837 1.818625 0.2105043 2.687871 -4.339346 2.719763 1.224672 1.915844 3.027415 0.1177913 4.285779 -4.195625 1.60457 -1.20864 0.7042866 -1.844626 0.2874816 -3.546069 0.4648108 -3.395097 -1.113227 0.1278277 -2.680678 -1.617912 -1.998523 -2.255139 -0.7077692 -2.16335 -0.263329 -2.11204 -0.8804523 -2.461785 -1.435768 4.240383 11.18417 1 492
-7.913988 1.419085 1.376196 1.336419 1.489321 1.959223 1.981088 -1.287733 1.272476 -0.01479447 2.415293 -4.363445 2.410793 1.492863 2.045244 3.115726 0.1225706 4.354649 -4.312402 1.324002 -0.9786791 0.940586 -1.928245 0.2867488 -3.659897 -0.08565107 -3.252593 -0.8460392 0.3723333 -2.597056 -1.627313 -1.860913 -2.054071 -0.5222406 -1.89216 0.07025134 -1.877328 -0.8061934 -2.18145 -1.241512 4.057106 11.46176 1 496
-7.518923 1.246885 0.9845684 1.200281 1.437263 1.729127 1.762109 -1.147886 0.6918184 -0.06082016 1.886465 -4.662848 1.825999 1.724627 2.228888 3.111022 0.1937511 4.229214 -4.387836 0.7628574 -0.7458997 1.150402 -1.915317 0.1930069 -3.321222 -0.6905954 -3.136555 -0.5821774 0.6034153 -2.483967 -1.682563 -1.783141 -1.862271 -0.4102221 -1.623783 0.3128229 -1.671841 -0.83792 -1.949293 -0.9810989 3.551462 12.6302 1 500
-7.168634 1.253654 0.4968618 1.246898 1.493367 1.523771 1.674617 -1.044999 0.2608478 -0.1308157 1.340788 -5.286395 1.26984 1.831125 2.327736 2.906614 0.3579471 3.939294 -4.770456 0.02066565 -0.5455671 1.179061 -1.842874 -0.01510878 -2.915631 -1.297592 -3.061418 -0.4934001 0.6894471 -2.411433 -1.781528 -2.014446 -1.783792 -0.4987451 -1.542707 0.2727132 -1.63648 -0.9700062 -1.892831 -0.9144819 3.095722 16.83831 1 504
-6.913643 1.362489 0.06021903 1.395767 1.620241 1.543495 1.635569 -1.201817 0.01316214 -0.3880328 0.9345556 -5.859995 0.9104221 1.834784 2.320593 2.58099 0.55344 3.599655 -5.389659 -0.6333165 -0.4129589 1.011979 -1.794564 -0.2438635 -2.776316 -1.747405 -3.051902 -0.5680445 0.5994374 -2.417126 -1.91301 -2.486325 -1.821061 -0.7366867 -1.649765 0.01839126 -1.72255 -1.142431 -1.946203 -1.07821 2.942626 22.95703 1 508
-6.907754 1.429752 -0.1907983 1.491606 1.750648 1.600564 1.548514 -1.4311 -0.05702777 -0.6549935 0.6505023 -5.920441 0.652848 1.883543 2.348871 2.380966 0.7674733 3.424111 -5.70317 -1.050661 -0.3015961 0.8989279 -1.792951 -0.3297939 -2.892764 -1.763046 -3.045664 -0.6410856 0.548992 -2.50301 -1.895114 -2.81889 -1.762929 -0.902513 -1.685018 -0.2398496 -1.683981 -1.301363 -1.896779 -1.258743 3.122452 26.13125 1 512
-7.022378 1.467337 -0.1584543 1.520571 1.85636 1.490036 1.466432 -1.549966 0.1236338 -0.8044485 0.5337161 -5.510939 0.5081959 2.049837 2.437417 2.445961 0.8876826 3.49791 -5.565238 -1.122992 -0.1927217 1.018574 -1.847968 -0.2569847 -3.184202 -1.298145 -2.995533 -0.677932 0.687555 -2.755735 -1.667468 -2.950939 -1.531823 -0.9540617 -1.52514 -0.5312105 -1.484053 -1.540408 -1.726871 -1.3517 3.639415 24.57667 1 516
-6.693013 1.618508 0.1158793 1.627252 1.962059 1.421723 1.526884 -1.419185 0.4089652 -0.8570139 0.6915695 -5.033494 0.6183558 2.24894 2.426462 2.680882 0.8103456 3.655466 -5.333625 -0.8812609 -0.161945 1.221625 -1.942164 -0.2042848 -3.528021 -0.7408096 -2.99841 -0.8202289 0.8401273 -3.165978 -1.478311 -3.166095 -1.389832 -1.11909 -1.386811 -0.9882608 -1.360107 -1.999055 -1.642696 -1.523588 4.087345 21.87088 1 520
-5.855583 1.838337 0.3844688 1.804585 2.074308 1.46237 1.687791 -1.126587 0.5725467 -0.8042303 1.0684 -4.981411 0.9581668 2.367739 2.237643 2.897434 0.6224029 3.736203 -5.429749 -0.5623829 -0.2477317 1.306966 -2.096344 -0.3009685 -3.751545 -0.5847164 -3.115991 -1.173669 0.8310438 -3.575629 -1.510537 -3.603672 -1.451134 -1.519589 -1.411422 -1.532888 -1.397518 -2.572255 -1.704065 -1.890862 4.156179 22.19392 1 524
-5.079762 1.965613 0.5815726 1.904498 2.185447 1.363577 1.817362 -1.018781 0.6811045 -0.7691596 1.535694 -5.327067 1.424893 2.375925 1.962507 3.034016 0.4042464 3.786231 -5.83759 -0.1112234 -0.4187527 1.28629 -2.353935 -0.4403289 -3.850756 -0.8483477 -3.282497 -1.632673 0.7360121 -3.867918 -1.657431 -4.100673 -1.596115 -2.010299 -1.528723 -1.995362 -1.520247 -3.037012 -1.823523 -2.312945 4.154963 25.22124 1 528
-4.725215 1.943268 0.9018943 1.845811 2.286134 1.039595 1.883165 -1.232569 0.8744497 -0.9513018 2.071875 -5.455974 1.980693 2.359274 1.705016 3.194504 0.1026872 3.968004 -6.160988 0.714083 -0.6232882 1.313215 -2.707728 -0.3802507 -4.098449 -1.108446 -3.413582 -1.966947 0.7428181 -4.04206 -1.710369 -4.393505 -1.717684 -2.362564 -1.618314 -2.284762 -1.640164 -3.286506 -1.926369 -2.551872 4.452339 26.97998 1 532
-4.723873 1.84662 1.364908 1.697602 2.365553 0.7110142 1.92294 -1.613593 1.080989 -1.286601 2.599736 -5.03391 2.497653 2.422247 1.532262 3.477994 -0.2607511 4.316528 -6.067281 1.543803 -0.7842754 1.483892 -3.002511 -0.07391506 -4.521204 -1.043379 -3.471653 -2.074176 0.9364485 -4.125538 -1.595153 -4.340607 -1.715265 -2.477988 -1.567027 -2.396804 -1.63229 -3.329319 -1.937496 -2.540188 5.016552 24.79808 1 536
-4.994332 1.862421 1.802004 1.664533 2.480594 0.6516669 2.023853 -1.983111 1.239039 -1.532216 2.993835 -4.442479 2.839996 2.553114 1.478731 3.837778 -0.5051012 4.682631 -5.569064 1.927745 -0.8445039 1.698208 -3.034483 0.2798202 -4.717228 -0.5788051 -3.51792 -2.058162 1.166126 -4.062886 -1.383069 -4.00418 -1.633223 -2.480326 -1.449037 -2.356669 -1.537536 -3.287962 -1.903937 -2.51337 5.63422 19.57333 1 540
-5.32013 2.077683 2.148517 1.847174 2.701931 1.038841 2.271163 -2.157209 1.418784 -1.449513 3.240228 -4.163235 3.029316 2.639569 1.494086 4.126767 -0.4955747 4.915433 -4.934708 2.066508 -0.8802121 1.740445 -2.793057 0.4692646 -4.394726 -0.02021369 -3.69967 -2.078459 1.137561 -3.791164 -1.231865 -3.610568 -1.685331 -2.593146 -1.503472 -2.22252 -1.595112 -3.367587 -2.020002 -2.779481 6.061659 14.36205 1 544
-5.105068 2.423872 2.325065 2.194071 2.986944 1.927699 2.667412 -1.973324 1.595768 -0.9198074 3.294228 -4.151267 3.05554 2.617992 1.515137 4.265953 -0.2920861 4.941398 -4.43212 2.035163 -1.040855 1.52585 -2.42977 0.373309 -3.702841 0.05873043 -4.099116 -2.241237 0.7287198 -3.49339 -1.312199 -3.501085 -1.976013 -2.953419 -1.822828 -2.199203 -1.904776 -3.72087 -2.39057 -3.385687 6.031134 12.48353 1 548
-4.38907 2.788192 2.128304 2.605172 3.201055 2.85262 3.052482 -1.560949 1.671457 -0.1358399 3.099068 -4.286015 2.855264 2.565531 1.592331 4.306736 -0.03858176 4.804422 -4.257984 1.539778 -1.300456 1.215603 -2.091684 0.08635666 -3.059659 -0.3126979 -4.558601 -2.463819 0.194606 -3.379417 -1.543455 -3.770251 -2.318932 -3.423746 -2.20223 -2.382077 -2.266885 -4.218368 -2.826162 -4.018577 5.631118 14.61536 1 552
-3.872181 3.002229 1.676072 2.887997 3.304645 3.118941 3.222634 -1.080531 1.573823 0.6509396 2.735318 -4.495162 2.502746 2.578841 1.800342 4.319726 0.2244051 4.644697 -4.280368 0.6360788 -1.473283 1.017903 -1.80438 -0.1665852 -2.676896 -0.6421695 -4.842838 -2.497717 -0.1517655 -3.304958 -1.700397 -4.043575 -2.508009 -3.688168 -2.414828 -2.52714 -2.472142 -4.529174 -3.055684 -4.287599 5.065564 17.5525 1 556
-3.329554 3.064227 1.367479 3.005859 3.40216 2.873642 3.220638 -0.4732275 1.31903 1.360952 2.351102 -4.525901 2.170649 2.591406 2.019033 4.258852 0.5152086 4.483366 -4.250919 -0.2381821 -1.518358 0.9002586 -1.534889 -0.3210207 -2.567696 -0.7931923 -4.969491 -2.371672 -0.3695479 -3.185174 -1.771507 -4.123199 -2.640396 -3.724766 -2.540457 -2.516608 -2.582266 -4.575786 -3.120703 -4.195369 4.267572 19.06837 1 560
-2.073588 3.176726 1.38527 3.143112 3.494833 2.859875 3.211246 0.2801057 1.126348 1.824041 2.09011 -4.303319 1.970829 2.463307 2.009361 4.003446 0.7493535 4.227461 -4.274349 -0.835553 -1.570233 0.6904022 -1.336143 -0.4321522 -2.808871 -0.8091761 -5.074721 -2.395428 -0.6519072 -3.224146 -1.82624 -4.239853 -2.86879 -3.80577 -2.748373 -2.549617 -2.7403 -4.525304 -3.194524 -4.062351 3.256317 20.38853 1 564
-0.499863 3.34109 1.747401 3.285073 3.455926 3.297187 3.151643 1.047092 1.214431 1.783902 1.9919 -3.759796 1.887584 2.158662 1.72896 3.530559 0.7941176 3.860158 -4.341023 -1.157625 -1.70218 0.4021092 -1.293309 -0.501704 -3.280093 -0.7284321 -5.156056 -2.618672 -0.9300654 -3.409379 -1.821603 -4.425501 -3.083056 -4.000264 -2.953048 -2.694003 -2.896904 -4.436244 -3.235389 -4.029655 2.282018 21.9941 1 568
0.5271728 3.40217 2.387084 3.285008 3.324251 3.784142 2.980854 1.635981 1.549215 1.421018 2.032503 -2.674139 1.927789 1.761129 1.389181 3.016423 0.6611497 3.482888 -3.996722 -0.9274167 -1.890759 0.2048403 -1.365922 -0.4746787 -3.578382 -0.6112867 -5.194076 -2.826265 -1.053144 -3.531991 -1.733149 -4.407781 -3.11489 -4.151376 -2.971516 -2.813365 -2.920814 -4.326761 -3.167296 -4.012389 1.600251 21.37104 1 572
0.8060026 3.344566 3.056378 3.166556 3.190457 3.932979 2.814591 1.97321 1.964312 1.299687 2.238476 -1.304044 2.1578 1.394586 1.152546 2.674943 0.4921746 3.249821 -3.010811 0.1710248 -2.081785 0.1894005 -1.408744 -0.3132297 -3.40208 -0.4107836 -5.208631 -2.885643 -1.004056 -3.521437 -1.598552 -4.032831 -2.996408 -4.160966 -2.806833 -2.808944 -2.811815 -4.252771 -3.040418 -3.90532 1.278033 16.41857 1 576
0.4907005 3.21644 3.495744 2.998935 2.99009 3.75335 2.68609 2.150438 2.325233 1.54198 2.440187 -0.3868234 2.386721 1.062939 0.9776749 2.451162 0.4229932 3.169645 -1.838083 1.58514 -2.185349 0.2590466 -1.3018 -0.09073483 -2.728788 -0.1712279 -5.181303 -2.803367 -0.8500884 -3.315623 -1.441253 -3.424853 -2.824176 -4.027496 -2.584858 -2.638671 -2.64312 -4.155045 -2.900876 -3.680208 1.125345 9.643882 1 580
-0.1657756 3.080771 3.696759 2.843873 2.800136 3.598888 2.568175 2.442455 2.524025 1.996086 2.29308 -0.05165664 2.233439 0.6906683 0.8463727 2.186929 0.5970725 3.079315 -0.8665769 2.163347 -2.154798 0.2180659 -0.9482462 -0.005671761 -1.678394 -0.148794 -5.144475 -2.639398 -0.7530546 -2.835506 -1.348147 -2.826071 -2.685316 -3.829944 -2.442902 -2.3606 -2.511323 -3.980545 -2.798869 -3.501986 0.6837476 5.134871 1 584
-0.6903185 3.038128 3.833364 2.804273 2.834047 3.791079 2.562539 3.044962 2.482869 2.760849 1.859265 0.2821616 1.753173 0.2954001 0.8242951 1.912848 1.052181 2.914366 0.07393458 1.635743 -2.076065 0.01889125 -0.3756748 -0.1551523 -0.4538286 -0.4910621 -5.196842 -2.449197 -0.8429428 -2.202185 -1.447085 -2.363943 -2.698564 -3.675476 -2.487989 -2.13683 -2.53287 -3.812894 -2.817345 -3.539119 -0.3520696 3.023087 1 588
-0.7558528 3.067982 3.948056 2.854461 3.019401 4.146855 2.678477 3.633334 2.249855 3.696023 1.600072 0.706672 1.440558 -0.0521333 0.8808758 1.701696 1.569395 2.794646 0.989521 1.004995 -2.051134 -0.168225 0.176596 -0.3449099 0.5765374 -0.8421034 -5.341883 -2.258024 -1.003937 -1.704244 -1.611751 -2.036439 -2.794529 -3.594156 -2.607645 -2.055271 -2.623441 -3.739977 -2.886149 -3.703234 -1.538618 0.9775313 1 592
-0.4798646 3.060044 3.94281 2.867561 3.064428 4.15503 2.773199 3.755295 2.079602 4.372149 1.772861 0.8793301 1.58625 -0.2977853 0.8934807 1.585071 1.87495 2.835283 1.587817 1.174173 -2.088597 -0.1892871 0.4938835 -0.3325041 1.040141 -0.6640817 -5.467565 -2.09871 -1.040594 -1.522519 -1.550923 -1.806481 -2.738796 -3.564627 -2.557733 -2.078467 -2.559871 -3.762748 -2.822959 -3.814678 -2.078356 -2.276129 1 596
-0.352805 3.024438 3.811032 2.843405 2.890724 3.720664 2.798801 3.417345 2.200627 4.546451 2.305777 0.9353899 2.120488 -0.4302818 0.7893408 1.541586 1.901823 2.98542 1.841901 2.0252 -2.192735 -0.1163333 0.5798819 -0.1298032 0.9362333 -0.04747352 -5.54747 -2.066885 -0.989969 -1.555872 -1.282372 -1.629339 -2.506953 -3.597558 -2.336732 -2.093656 -2.350982 -3.825372 -2.64438 -3.843644 -1.758818 -5.917053 1 600
-0.4011402 3.048771 3.615449 2.876945 2.725098 3.326837 2.803885 3.068437 2.460346 4.361793 2.843551 1.138357 2.68034 -0.5197109 0.6078443 1.447982 1.801397 3.0805 1.861732 2.782899 -2.37593 -0.1525671 0.5753092 0.0299119 0.6155151 0.3514272 -5.702702 -2.2141 -1.063345 -1.58485 -1.114093 -1.571202 -2.304655 -3.745434 -2.170786 -2.047051 -2.20798 -3.93959 -2.534507 -3.945633 -1.249115 -7.259926 1 604
0.200367 3.190994 3.380942 3.039791 2.767759 3.494221 2.863055 3.249305 2.521631 4.131676 2.926634 1.208218 2.801684 -0.661791 0.4007308 1.257045 1.676576 2.979404 1.519573 2.723843 -2.628784 -0.4035568 0.5462949 -0.07870311 0.3935098 0.1359542 -6.031723 -2.459224 -1.363979 -1.551546 -1.275522 -1.832212 -2.338007 -4.034883 -2.243555 -2.058241 -2.292399 -4.179378 -2.629713 -4.253368 -1.433116 -3.659432 1 608
1.58326 3.402608 3.122149 3.275041 2.913408 4.018383 3.002928 3.89868 2.35178 3.879368 2.672174 0.7733732 2.590804 -0.8819237 0.1731349 1.051003 1.454777 2.688642 0.755985 1.899466 -2.939577 -0.7851714 0.484588 -0.4126529 0.3924904 -0.3835251 -6.463768 -2.70651 -1.775342 -1.531075 -1.698793 -2.413046 -2.630811 -4.38976 -2.535052 -2.205635 -2.571988 -4.505176 -2.915535 -4.627758 -2.299638 4.28869 1 612
2.600923 3.507025 2.826764 3.39519 2.929996 4.192695 3.104107 4.273682 2.212637 3.498268 2.62311 0.1289943 2.600697 -1.115059 -0.04402332 0.8612593 1.13196 2.396038 -0.03625828 1.109956 -3.256396 -1.108795 0.4631943 -0.6841714 0.4963975 -0.6350297 -6.773971 -2.877328 -2.089252 -1.564983 -2.066531 -2.971094 -2.899282 -4.645069 -2.792521 -2.371541 -2.794225 -4.765281 -3.15568 -4.785611 -2.910242 11.98947 1 616
2.406834 3.40171 2.532243 3.29814 2.757836 3.874679 3.042049 4.030097 2.268297 3.054883 2.822634 -0.01459819 2.862611 -1.260112 -0.2375589 0.6687207 0.8582957 2.239639 -0.3294822 0.8471947 -3.473855 -1.262228 0.572835 -0.7333472 0.4890736 -0.401166 -6.785335 -2.866902 -2.201616 -1.523607 -2.132732 -3.108097 -2.828962 -4.666191 -2.748858 -2.341572 -2.718074 -4.815035 -3.095393 -4.635312 -2.749392 14.90172 1 620
1.057191 3.058847 2.475863 2.931851 2.464052 3.34859 2.771955 3.536675 2.516774 2.694642 2.985064 0.4225915 3.038706 -1.304138 -0.446456 0.4614192 0.7917758 2.146542 0.02821201 0.9235498 -3.488821 -1.313693 0.842971 -0.6728036 0.5677653 0.1533502 -6.555736 -2.628021 -2.188061 -1.110868 -1.923651 -2.65382 -2.45768 -4.449564 -2.422126 -1.944276 -2.371809 -4.589655 -2.779866 -4.351161 -2.129088 12.56296 1 624
-0.9413506 2.483384 2.749657 2.290537 2.115391 2.740382 2.334261 3.111856 2.93362 2.461079 3.046877 0.8345753 3.077805 -1.331598 -0.6186615 0.2065112 0.9318247 2.012752 0.6682589 1.037458 -3.314131 -1.414165 1.20724 -0.6456558 1.068175 0.6838356 -6.290173 -2.237837 -2.192521 -0.3214693 -1.692871 -1.858198 -2.102962 -4.10604 -2.113447 -1.244711 -2.035848 -4.158669 -2.489909 -4.133004 -1.403954 8.65175 1 628
-2.744397 1.899549 2.94019 1.648365 1.776777 2.203504 1.914302 2.843466 3.332321 2.190123 3.019418 0.9703836 3.019348 -1.328273 -0.6167249 -0.05682958 1.055695 1.871006 1.056045 1.069979 -3.104546 -1.563227 1.464381 -0.6575857 1.665104 0.977767 -6.106418 -1.841675 -2.24791 0.3778845 -1.653362 -1.243562 -2.005208 -3.77813 -2.053603 -0.5623037 -1.928669 -3.729006 -2.387398 -4.011164 -0.8163787 7.140741 1 632
-3.680306 1.574992 2.804779 1.308172 1.553986 2.103434 1.688022 2.713161 3.485541 1.828016 2.987253 1.01954 2.927637 -1.218337 -0.4689534 -0.2138937 0.9673644 1.790031 0.988789 1.23049 -3.022942 -1.640129 1.421795 -0.6428225 1.762804 1.006791 -6.030338 -1.609195 -2.319067 0.5514648 -1.740482 -1.111382 -2.072896 -3.573242 -2.144389 -0.2417568 -1.971425 -3.514513 -2.387828 -3.92805 -0.4656318 8.283575 1 636
-3.604779 1.524333 2.609707 1.26863 1.500306 2.584068 1.625702 2.645307 3.418279 1.612385 2.9996 1.008526 2.869426 -1.054009 -0.3819685 -0.2507802 0.740934 1.730834 0.6133776 1.667714 -3.075012 -1.642526 1.099303 -0.6017627 1.318156 0.6579611 -6.024208 -1.639848 -2.415484 0.260689 -1.841663 -1.314324 -2.074869 -3.484708 -2.166047 -0.306881 -1.994365 -3.476079 -2.370479 -3.813878 -0.2859607 10.06441 1 640
-2.657356 1.625037 2.432841 1.396008 1.521838 3.232965 1.630865 2.665708 3.244888 1.606737 2.856294 0.7822356 2.684555 -0.9201162 -0.4323625 -0.2506765 0.5619688 1.610148 0.07160603 2.032672 -3.126439 -1.653026 0.6730224 -0.5886008 0.6993452 0.08371535 -5.98324 -1.856517 -2.535456 -0.09682391 -1.960271 -1.577557 -1.9951 -3.453188 -2.087785 -0.4946096 -1.970508 -3.412981 -2.314087 -3.65288 -0.3196236 11.92668 1 644
-1.396374 1.757464 2.126668 1.560041 1.539299 3.557386 1.729971 2.696889 3.095909 1.526605 2.483829 0.2989429 2.287409 -0.8280373 -0.5096124 -0.2356462 0.4739062 1.421871 -0.5780913 2.01111 -3.094771 -1.716222 0.25131 -0.6317493 0.2345626 -0.1633725 -5.890772 -2.136884 -2.668911 -0.3389107 -2.045655 -1.857672 -1.913874 -3.506732 -1.973204 -0.7033105 -1.907936 -3.33446 -2.228141 -3.570538 -0.443277 14.62098 1 648
-0.7817951 1.81093 1.675486 1.633258 1.49938 3.285031 1.901271 2.403839 3.153001 1.195286 2.163446 -0.1915018 1.943357 -0.7222182 -0.5098277 -0.1455212 0.438971 1.259647 -1.037305 1.73572 -2.971338 -1.767253 -0.03785766 -0.7194834 0.1623902 0.1738064 -5.737726 -2.344494 -2.784853 -0.4574347 -1.999381 -2.06295 -1.773852 -3.610003 -1.812633 -0.9013592 -1.763586 -3.308537 -2.113937 -3.597013 -0.09610904 16.81309 1 652
-1.228295 1.789128 1.237572 1.618171 1.386376 2.530205 2.033939 1.714767 3.397038 0.7503986 2.163253 -0.3628913 1.940257 -0.505187 -0.3738648 0.05525637 0.4653598 1.24364 -0.9084396 1.553677 -2.755918 -1.646316 -0.003061728 -0.7886143 0.5215352 0.9024864 -5.476105 -2.312166 -2.802756 -0.4288345 -1.81877 -1.963127 -1.569871 -3.623157 -1.659394 -0.9768406 -1.582856 -3.2659 -2.007575 -3.597261 0.9917044 15.36244 1 656
-2.174276 1.808706 1.037283 1.632004 1.322112 1.887457 2.139313 1.153302 3.565114 0.5104341 2.31839 -0.1147855 2.116831 -0.1557121 -0.08246386 0.3168784 0.5804546 1.356781 -0.2408815 1.56446 -2.459267 -1.336764 0.2834434 -0.8304876 1.044419 1.6046 -5.139611 -2.082977 -2.718686 -0.4087509 -1.627761 -1.651037 -1.425386 -3.530706 -1.58355 -1.000526 -1.466947 -3.226371 -1.943107 -3.528058 2.120741 10.36546 1 660
-2.728622 1.960387 1.084757 1.771847 1.38055 1.848257 2.294923 1.225577 3.525727 0.7407994 2.210259 0.3727459 2.034529 0.2091544 0.2741719 0.5300227 0.796059 1.408124 0.450434 1.47755 -2.148308 -1.063221 0.5176549 -0.9753122 1.377423 1.777121 -4.799664 -1.910557 -2.664182 -0.5328581 -1.617195 -1.488964 -1.429594 -3.464819 -1.576083 -1.137518 -1.484116 -3.282358 -1.957616 -3.481469 2.417722 6.056723 1 664
-0.6218742 -0.6158518 -1.379283 -1.597636 -1.562929 -3.129174 -1.715276 -0.320242 -1.00027 -0.3757977 -1.035227 -0.3080244 -1.05497 -0.1672901 -2.706793 -1.59489 -1.555327 -1.234161 -0.3857672 -1.234195 0.8287141 -0.1516836 2.712607 -0.1597269 2.773406 -0.1971637 -1.332127 1.189368 -0.6207943 2.717448 -1.592412 2.728959 -0.609272 2.700091 -1.775756 2.727408 -1.163463 2.803613 -1.237619 0.6524323 4.273076 6.328127 2 -168
-0.4488089 -0.3841985 -1.107796 -1.203957 -1.131391 -2.965297 -1.232804 -0.5405011 -0.7671656 -0.6204181 -0.7306278 -0.5228903 -0.8151156 0.3510151 -2.299799 -1.095129 -1.719614 -0.7401516 -0.6239014 -0.959059 0.8724531 -0.131825 2.50891 -0.0282821 2.534497 -0.05007315 -1.604889 0.6905724 -1.089671 2.491099 -1.750769 2.518948 -0.7213245 2.389625 -2.075161 2.502155 -1.285383 2.548575 -1.370542 0.4271265 4.462488 5.718842 2 -164
-0.1217603 0.01738224 -0.8177041 -0.8364001 -0.74207 -2.593302 -0.6694689 -0.6962615 -0.6180043 -0.7320043 -0.4890145 -0.5804244 -0.628423 0.8356121 -2.000943 -0.5730309 -1.979799 -0.08447873 -0.6993353 -0.7321442 0.8836669 0.009299365 2.376694 -0.1328602 2.405447 -0.1640992 -1.804941 0.2549643 -1.545921 2.361246 -2.184191 2.378364 -1.0596 2.196618 -2.391753 2.424546 -1.684494 2.380448 -1.750233 0.1969408 4.488129 5.103518 2 -160
0.184406 0.3248496 -0.5453848 -0.6443973 -0.4411639 -2.309877 -0.08871937 -0.6870534 -0.4378645 -0.6411785 -0.2610427 -0.4741122 -0.3922668 1.237886 -1.855253 -0.04249118 -2.120757 0.6163641 -0.5990962 -0.4924176 0.9653032 0.2396126 2.271939 -0.4137579 2.282491 -0.4670239 -1.915458 -0.03234763 -1.893211 2.247876 -2.792053 2.23987 -1.496141 2.078287 -2.747299 2.371975 -2.222068 2.236699 -2.247542 -0.05043632 4.397334 4.615149 2 -156
0.2258267 0.4169406 -0.4732494 -0.561853 -0.2872218 -2.389042 0.4316053 -0.8152712 -0.2320678 -0.6179544 -0.05142021 -0.4964984 -0.1768072 1.470799 -1.930439 0.4040199 -2.191991 1.197373 -0.5992432 -0.3211419 1.165383 0.5289443 2.221476 -0.6677737 2.188494 -0.7029634 -1.919047 -0.198477 -2.062907 2.183798 -3.328607 2.156959 -1.790558 2.038939 -3.056911 2.290976 -2.556437 2.17373 -2.585588 -0.1332569 4.363155 4.687592 2 -152
0.07188499 0.3988936 -0.6296796 -0.4084273 -0.2728674 -2.711626 0.8301399 -1.096885 -0.2087913 -0.8221921 -0.02876507 -0.7464705 -0.1872165 1.542368 -2.175615 0.6214991 -2.309081 1.57361 -0.8058666 -0.3924448 1.48033 0.8540704 2.384926 -0.8398001 2.350437 -0.7939572 -1.763687 -0.2687007 -2.092063 2.367195 -3.700054 2.335723 -1.91904 2.210528 -3.277544 2.385234 -2.653339 2.352635 -2.723101 -0.04335191 4.189919 4.92099 2 -148
-0.07795372 0.3807024 -0.9106606 -0.1818204 -0.3234323 -3.066008 1.093359 -1.261422 -0.2922681 -0.997041 -0.1068039 -0.9230174 -0.3009722 1.533832 -2.463568 0.5804252 -2.419732 1.789011 -0.9543929 -0.5241781 1.878416 1.246088 2.630978 -0.9063062 2.639208 -0.7903755 -1.400768 -0.2589796 -2.006692 2.6644 -3.887201 2.620552 -1.966514 2.458755 -3.339516 2.599814 -2.659761 2.613267 -2.756848 0.05812467 3.523935 4.465291 2 -144
-0.06908134 0.3990407 -1.292496 -0.1449496 -0.4703163 -3.363246 1.090255 -1.125155 -0.2909947 -0.8029827 -0.09871123 -0.7357063 -0.3049922 1.516814 -2.753509 0.3787151 -2.398464 1.863237 -0.7487876 -0.4908749 2.261167 1.657373 2.762398 -0.8636454 2.787701 -0.7465913 -0.9389548 -0.2242699 -1.809021 2.811048 -3.966495 2.730115 -2.032271 2.568879 -3.18639 2.728573 -2.702048 2.719665 -2.805324 0.07841058 2.439873 3.572003 2 -140
0.03352433 0.4236962 -1.705985 -0.5053676 -0.8001558 -3.639416 0.7223515 -0.8248567 -0.2240639 -0.3678936 -0.04887633 -0.3059521 -0.2302658 1.493845 -3.062999 0.1141308 -2.236879 1.747619 -0.3060498 -0.3687768 2.522988 1.918973 2.90343 -0.804949 2.928154 -0.7183901 -0.6255782 -0.2673218 -1.585873 2.88239 -3.980612 2.787918 -2.110318 2.627673 -2.899599 2.855005 -2.751703 2.784743 -2.875336 0.05682494 1.402352 3.041108 2 -136
-0.1179899 0.2763156 -2.076227 -1.084483 -1.254699 -4.030466 0.1169798 -0.8231075 -0.08802494 -0.09825418 0.05758866 -0.01572442 -0.08277974 1.439025 -3.386699 -0.1553118 -2.056245 1.558826 -0.03084514 -0.1873053 2.687995 2.05507 3.042513 -0.6605412 3.08527 -0.6010486 -0.5438507 -0.4759426 -1.327816 2.936675 -3.728464 2.874 -2.007621 2.674068 -2.510876 2.963078 -2.584469 2.867226 -2.757192 0.1405207 0.8904151 3.020778 2 -132
-0.5871312 -0.1450295 -2.410486 -1.530015 -1.665527 -4.502936 -0.5018554 -1.174692 0.2215456 -0.002842426 0.3482241 0.07581165 0.2491737 1.3737 -3.646772 -0.4137845 -1.92588 1.515996 0.03875737 0.1656666 2.847748 2.254869 2.89139 -0.2813077 2.942339 -0.2440749 -0.5311905 -0.8018537 -0.9504313 2.77777 -3.144542 2.749999 -1.711526 2.506016 -1.997406 2.798738 -2.219285 2.731694 -2.388038 0.23827 0.9532501 3.095441 2 -128
-0.9874609 -0.6454567 -2.718541 -1.825303 -1.982005 -4.848884 -1.105082 -1.380116 0.6084471 0.147937 0.7154284 0.1865018 0.6714596 1.336303 -3.746529 -0.699199 -1.824819 1.60151 0.1502573 0.5964614 3.02876 2.522014 2.387617 0.1967487 2.420286 0.2185258 -0.4037516 -1.080288 -0.4920266 2.31385 -2.407025 2.287097 -1.35718 2.050081 -1.38339 2.316384 -1.76985 2.282919 -1.845523 0.1841152 1.226951 3.052916 2 -124
-1.220659 -1.066278 -3.045468 -2.173309 -2.286013 -5.066113 -1.75848 -1.326939 0.814208 0.2919965 0.9225374 0.2896545 0.9125095 1.309425 -3.72234 -0.9936742 -1.704253 1.636343 0.2853227 0.842372 3.212515 2.697576 1.897257 0.5374332 1.895639 0.5504156 -0.09055114 -1.130867 -0.06133753 1.843116 -1.686732 1.786248 -0.9530941 1.601017 -0.688695 1.829781 -1.17977 1.825458 -1.19505 0.186207 1.333261 2.848725 2 -120
-1.477165 -1.479047 -3.376783 -2.47642 -2.623543 -5.310307 -2.296566 -1.224032 0.7593485 0.313811 0.8962728 0.2914602 0.8787874 1.273492 -3.664354 -1.198472 -1.474439 1.609034 0.3481806 0.8111748 3.391585 2.731209 1.676834 0.7665842 1.644116 0.7695499 0.3509371 -0.8888959 0.2926691 1.634501 -1.075781 1.563967 -0.546658 1.402614 0.02818268 1.598161 -0.5470489 1.602133 -0.6156933 0.3224001 1.051467 2.265718 2 -116
-1.733327 -1.96333 -3.614784 -2.558735 -3.007964 -5.650112 -2.656416 -1.148303 0.6359601 0.2805747 0.7787247 0.2661942 0.7507355 1.235095 -3.605006 -1.34936 -1.150395 1.602411 0.3779324 0.6780016 3.539186 2.723394 1.567013 1.019811 1.536178 1.011706 0.7817053 -0.491282 0.5980445 1.566891 -0.496226 1.514825 -0.1821729 1.338794 0.7137902 1.527166 0.006270864 1.513837 -0.1590145 0.4132271 0.5410206 1.248938 2 -112
-1.9758 -2.439172 -3.841549 -2.651761 -3.48388 -6.009225 -3.206132 -1.195346 0.5879615 0.2888589 0.6883621 0.3138408 0.6810083 1.134426 -3.57931 -1.684104 -0.8904572 1.515429 0.4273265 0.599771 3.571428 2.705935 1.517707 1.274351 1.51703 1.258643 1.109296 -0.09609322 0.8564994 1.561761 0.09334591 1.522293 0.196453 1.360661 1.39182 1.521589 0.5216989 1.528087 0.3196043 0.5830588 0.05267824 0.3521877 2 -108
-2.250067 -2.696762 -4.159459 -3.06445 -3.956253 -6.114286 -4.028742 -1.349156 0.5943868 0.3317305 0.6252403 0.4196563 0.6729073 0.9721171 -3.536424 -2.259985 -0.7190594 1.228376 0.4652127 0.5895975 3.509226 2.649633 1.543739 1.454944 1.564315 1.418901 1.419095 0.2965988 1.078168 1.580759 0.5609499 1.534961 0.550271 1.453961 2.052461 1.53138 0.9912258 1.592656 0.8224312 0.9221201 -0.4062893 0.1139073 2 -104
-2.500864 -2.722256 -4.351872 -3.689278 -4.206039 -5.849434 -4.549871 -1.513662 0.5929914 0.2511444 0.5730969 0.3795671 0.6609361 0.8800232 -3.353091 -2.785154 -0.5186782 0.8178606 0.3398936 0.5927408 3.513231 2.572024 1.51048 1.535315 1.540886 1.460217 1.849239 0.7601856 1.279928 1.496978 0.7952026 1.46954 0.773818 1.48439 2.56136 1.477447 1.353006 1.561695 1.200858 1.218938 -0.7187685 0.2559526 2 -100
-2.642507 -2.721534 -4.16417 -4.052631 -4.178967 -5.428099 -4.443035 -1.634334 0.4233552 0.02166879 0.3985691 0.1480716 0.4805301 0.9215107 -2.999332 -3.003967 -0.2410349 0.3790691 0.07795572 0.4450939 3.615955 2.457999 1.419396 1.446244 1.478661 1.331922 2.340984 1.243892 1.420112 1.372782 0.8003559 1.393401 0.8818004 1.464618 2.827883 1.423833 1.62982 1.497147 1.428025 1.381901 -0.82955 0.1865279 2 -96
-2.612316 -2.695791 -3.750897 -3.862756 -3.977876 -4.981113 -4.04296 -1.672771 0.03234177 -0.2106144 0.02438213 -0.09454317 0.08730832 1.049302 -2.535512 -2.92868 0.04633515 -0.09349433 -0.1565997 0.09410792 3.698326 2.290971 1.33721 1.132365 1.431253 0.9981599 2.759904 1.594839 1.495981 1.317875 0.6601374 1.344595 0.9423833 1.452219 2.936299 1.40886 1.86794 1.473851 1.598605 1.493262 -0.8450512 -0.1075062 2 -92
-2.535723 -2.566774 -3.46651 -3.447226 -3.695822 -4.470993 -3.717468 -1.698131 -0.4106152 -0.3610966 -0.4166271 -0.2644955 -0.36307 1.189266 -2.058686 -2.710471 0.2373862 -0.5403756 -0.3158267 -0.3128882 3.677202 2.144212 1.287303 0.7218106 1.379004 0.5840971 3.093714 1.781046 1.576886 1.325829 0.4637485 1.304035 0.9407243 1.445497 3.020149 1.38704 2.010982 1.449301 1.722403 1.603051 -0.6730378 -0.3189766 2 -88
-2.624795 -2.509598 -3.317251 -3.153728 -3.366484 -3.910726 -3.469521 -1.861712 -0.6836337 -0.4683547 -0.7121704 -0.4172802 -0.6665784 1.264761 -1.596347 -2.428103 0.3517744 -0.7666929 -0.4434789 -0.5994564 3.562783 2.116888 1.177525 0.4950733 1.211621 0.3426923 3.369354 1.891175 1.795808 1.246758 0.388574 1.17818 0.9100317 1.358255 3.229118 1.227078 2.06818 1.281291 1.816686 1.673054 -0.25187 -0.7087136 2 -84
-2.75771 -2.61659 -3.044624 -2.869625 -3.026551 -3.315411 -3.199471 -2.082066 -0.7548977 -0.6957272 -0.7822609 -0.6924377 -0.7565773 1.22928 -1.135914 -2.095755 0.4666233 -0.7839491 -0.6961865 -0.7217792 3.352785 2.097032 0.9050144 0.5226946 0.8618341 0.3497791 3.525806 1.949206 2.166813 0.9656498 0.5633065 0.8924633 0.9576641 1.110561 3.557746 0.8721613 2.170858 0.8996798 1.957694 1.6505 0.2596183 -1.257542 2 -80
-2.559163 -2.606352 -2.551233 -2.418517 -2.702935 -2.605592 -2.928816 -1.979134 -0.885058 -1.04254 -0.8384022 -1.043631 -0.8380315 1.109072 -0.7643738 -1.742473 0.5643851 -0.8098406 -1.05512 -0.8708715 2.998161 1.862188 0.5888522 0.5522551 0.5286265 0.3801455 3.461833 1.907805 2.45111 0.6183875 0.8360433 0.5899619 1.042606 0.8151785 3.730523 0.5313936 2.285404 0.5046992 2.100785 1.547348 0.5997199 -1.364165 2 -76
-2.023125 -2.248109 -1.975119 -1.842279 -2.328016 -1.882162 -2.573439 -1.599424 -1.096628 -1.251691 -0.9534227 -1.211056 -0.9756464 0.9910408 -0.5289365 -1.310011 0.6305472 -0.7974794 -1.241095 -1.067671 2.563196 1.503573 0.2733755 0.4916514 0.2631514 0.3402244 3.161297 1.743781 2.468004 0.2550897 1.022691 0.2849553 1.039077 0.5036634 3.569045 0.2429942 2.259309 0.1904736 2.142689 1.397193 0.6196601 -1.051133 2 -72
-1.504636 -1.658784 -1.489393 -1.340226 -1.793581 -1.346675 -2.017941 -1.325337 -1.031892 -1.262594 -0.8710364 -1.201033 -0.911762 0.9707549 -0.2710323 -0.7441569 0.6499703 -0.6441007 -1.233518 -1.000496 2.177555 1.22525 -0.1140812 0.4384079 -0.0883334 0.3388164 2.699163 1.478117 2.250842 -0.1742677 1.023135 -0.1099977 0.8789594 0.1130356 3.08331 -0.133271 2.01711 -0.1483021 1.976889 1.15398 0.4963678 -0.5553944 2 -68
-1.132949 -0.9916233 -1.062341 -0.9760042 -1.037305 -0.8706533 -1.284748 -1.074099 -0.5830922 -1.281723 -0.4923577 -1.244287 -0.5424881 1.036931 0.1516804 -0.09887114 0.560146 -0.484892 -1.264083 -0.5639841 1.794327 0.9689577 -0.44859 0.276705 -0.4252197 0.2700354 2.130714 1.147346 1.854612 -0.4997738 0.732328 -0.4251638 0.5140967 -0.2225108 2.293436 -0.4807441 1.484834 -0.4497325 1.462821 0.8042292 0.4038288 0.05042958 2 -64
-0.7147027 -0.3261098 -0.5072711 -0.6599918 -0.1500262 -0.3091495 -0.4108268 -0.6632593 -0.1133684 -1.289741 -0.09827589 -1.281163 -0.1615845 1.06676 0.6175146 0.5653605 0.3774012 -0.3574519 -1.280837 -0.1226914 1.229371 0.6224861 -0.5388249 -0.1108059 -0.508763 -0.02796462 1.416694 0.7433565 1.299072 -0.547653 0.227491 -0.4726213 -0.009138319 -0.3480711 1.288123 -0.5687235 0.6620962 -0.5328375 0.6228524 0.4079086 0.4416818 0.5239736 2 -60
-0.08723652 0.1772777 0.2260167 -0.2766716 0.6940374 0.1759692 0.39216 -0.2002786 0.1095847 -1.105917 0.07690889 -1.113225 0.007854679 1.028927 0.9771118 1.182321 0.2274572 -0.1476602 -1.09023 0.0544381 0.4492532 0.205039 -0.5258937 -0.4940581 -0.4889321 -0.3632973 0.5418578 0.2202161 0.6852736 -0.5367832 -0.1377781 -0.4678107 -0.4617473 -0.4355872 0.2775584 -0.5317028 -0.149735 -0.5448891 -0.1888097 -0.1095654 0.8434761 0.9042114 2 -56
0.5519568 0.4259155 0.953747 0.2617527 1.401773 0.5189396 0.8993953 0.2384935 0.2353588 -0.7572229 0.1833626 -0.7765166 0.1387224 0.9554129 1.24995 1.654685 0.2041722 0.1808685 -0.730616 0.1691676 -0.3700842 -0.2273951 -0.6990588 -0.5771366 -0.7036788 -0.4458293 -0.3728497 -0.3732262 0.1491644 -0.7649935 -0.1677298 -0.7071796 -0.6445197 -0.7383383 -0.51997 -0.7086605 -0.6240144 -0.7811312 -0.6190717 -0.7177655 1.396727 1.257372 2 -52
0.9461496 0.6137151 1.522681 0.8487417 1.950462 0.9411363 1.318416 0.6037875 0.3395708 -0.3825502 0.2912922 -0.4160901 0.2839472 0.7678768 1.453924 1.914715 0.2368315 0.5188369 -0.3514904 0.2972027 -1.052768 -0.6220761 -0.9377645 -0.4466962 -0.9987949 -0.3437536 -1.129802 -0.8433523 -0.2986326 -1.04583 -0.1424375 -0.9919113 -0.64518 -1.071152 -1.078414 -0.9834048 -0.8259296 -1.061701 -0.7550164 -1.137515 1.622048 1.090735 2 -48
1.165063 1.001097 1.930734 1.400513 2.357709 1.558498 1.939767 0.795886 0.3311063 -0.1410368 0.2820149 -0.1774841 0.2898426 0.4002121 1.537853 1.982145 0.1480227 0.7537084 -0.115054 0.295982 -1.566942 -0.9395921 -1.027508 -0.2942595 -1.087676 -0.2111395 -1.612134 -1.06426 -0.6923717 -1.11811 -0.2783211 -1.064524 -0.661643 -1.173186 -1.546637 -1.082406 -0.998648 -1.126815 -0.8827269 -1.279274 1.625533 0.3462394 2 -44
1.369653 1.5094 2.171271 1.908354 2.592333 2.189783 2.52995 0.9212647 0.2707286 -0.01822035 0.2303375 -0.0524704 0.217319 -0.07089047 1.455347 1.907104 -0.07952202 0.8684337 -0.008103896 0.2419354 -1.990052 -1.223292 -0.9764664 -0.1383132 -0.9922391 -0.06641536 -1.888576 -1.094628 -1.054521 -0.9965306 -0.4623477 -0.9538307 -0.7519306 -1.075047 -2.043525 -0.9949763 -1.290371 -1.006257 -1.129764 -1.252906 1.501028 -0.2736111 2 -40
1.64086 1.871675 2.28271 2.266164 2.607958 2.644183 2.665037 1.168195 0.2505509 0.2466196 0.2198089 0.1879944 0.1940785 -0.5342416 1.245716 1.713168 -0.2406382 0.7571153 0.2254859 0.2421268 -2.340153 -1.553755 -0.7774723 -0.1492441 -0.7816069 -0.08904001 -2.07511 -1.024141 -1.456252 -0.7448854 -0.6117674 -0.7236757 -0.8482411 -0.8480213 -2.556326 -0.7659252 -1.658366 -0.7462607 -1.444017 -1.128595 1.108452 -0.4409584 2 -36
1.942787 2.041569 2.335331 2.431569 2.476747 2.899316 2.502983 1.527975 0.2840759 0.7048603 0.2598813 0.6057439 0.2441884 -0.9569626 1.04129 1.475494 -0.2431849 0.4535916 0.6543216 0.3029123 -2.608585 -1.892956 -0.55837 -0.3602108 -0.5892794 -0.3040503 -2.248527 -0.9360673 -1.845341 -0.5250312 -0.6478226 -0.5509571 -0.8373158 -0.6484473 -2.921928 -0.5664209 -1.875437 -0.5282515 -1.64267 -1.016925 0.5898516 -0.4691015 2 -32
2.159759 2.114647 2.324633 2.412115 2.279889 3.013063 2.443834 1.908247 0.3304432 1.0812 0.3450669 0.9619091 0.3206906 -1.377673 0.8918539 1.252489 -0.2549786 0.2944355 1.023676 0.3610898 -2.87721 -2.131439 -0.440514 -0.439458 -0.480232 -0.3833308 -2.474945 -0.9373852 -2.07776 -0.3902989 -0.5369521 -0.4941419 -0.6912282 -0.558992 -3.004295 -0.475348 -1.846196 -0.4474021 -1.643281 -0.9841799 -0.01974414 -0.5521981 2 -28
2.2071 2.126117 2.259758 2.28301 2.052364 3.055671 2.453547 2.146462 0.3102573 1.271791 0.338944 1.166738 0.3237146 -1.815501 0.7211469 0.9812763 -0.3986997 0.2627262 1.212469 0.3179796 -3.159885 -2.271576 -0.235311 -0.4419133 -0.263127 -0.3833113 -2.724743 -1.052828 -2.203065 -0.1390087 -0.4757463 -0.2899737 -0.5063305 -0.3742191 -2.902827 -0.257519 -1.709433 -0.2414306 -1.557634 -0.8952377 -0.6140586 -0.5777664 2 -24
2.140491 2.16124 2.251329 2.30592 1.937163 3.109396 2.484953 2.068559 0.3175482 1.393093 0.3058378 1.330476 0.336468 -2.19711 0.5535025 0.7239465 -0.6036363 0.0620457 1.322182 0.3133992 -3.394209 -2.354903 0.05562693 -0.6830063 0.03225539 -0.6115647 -2.937486 -1.263493 -2.324481 0.1525117 -0.6028575 0.04261795 -0.3833003 -0.1010176 -2.83881 0.06448579 -1.612243 0.08725751 -1.498561 -0.6975033 -0.9560884 -0.4920065 2 -20
2.190654 2.292743 2.446576 2.625708 2.102288 3.282234 2.727934 1.768953 0.4610807 1.436139 0.4319172 1.40839 0.4654382 -2.352702 0.5370924 0.7282104 -0.734948 -0.1464991 1.364319 0.4553226 -3.555607 -2.309626 0.08768418 -0.9378475 0.06424336 -0.845457 -3.140204 -1.604463 -2.390485 0.1241193 -0.7802439 0.1070239 -0.3773883 -0.09312172 -2.949081 0.1203579 -1.608581 0.1294271 -1.509233 -0.702568 -1.219586 -0.09987175 2 -16
2.377729 2.402323 2.792429 3.042786 2.4473 3.589823 3.145631 1.50298 0.5493764 1.396628 0.5301975 1.366459 0.5264313 -2.167559 0.7208194 1.023732 -0.6775222 -0.08838799 1.340703 0.5108284 -3.558857 -2.038774 -0.1963429 -0.9275519 -0.214224 -0.8318074 -3.318211 -1.993254 -2.34728 -0.2168231 -0.860713 -0.1741429 -0.4984904 -0.4187194 -3.192268 -0.1504551 -1.701052 -0.201228 -1.585233 -1.109727 -1.498188 0.7009094 2 -12
2.489496 2.435965 3.051179 3.330395 2.721894 3.882554 3.489778 1.348184 0.4552962 1.298189 0.4332931 1.267182 0.4120793 -1.812609 0.9746481 1.333532 -0.4615659 0.108392 1.264853 0.3829236 -3.305485 -1.542037 -0.5151876 -0.8141861 -0.5217192 -0.7419415 -3.332513 -2.192612 -2.204975 -0.5372049 -0.8689127 -0.5091815 -0.6797399 -0.7582497 -3.386147 -0.4599088 -1.851143 -0.5652694 -1.693787 -1.567052 -1.747329 1.38912 2 -8
2.514032 2.489842 3.132292 3.471905 2.841687 4.109438 3.644709 1.305225 0.2655185 1.167696 0.2396397 1.163184 0.2261885 -1.575882 1.113775 1.409463 -0.2466445 0.20374 1.156377 0.1825868 -2.852303 -0.9591955 -0.6510824 -0.7978342 -0.6477123 -0.7471861 -3.095468 -2.081253 -1.998442 -0.6387869 -0.9393845 -0.6716598 -0.884965 -0.8827366 -3.434323 -0.5961837 -2.058391 -0.6933155 -1.880502 -1.732553 -2.134719 1.56348 2 -4
2.508977 2.552137 3.127276 3.569359 2.837179 4.364731 3.662361 1.32768 0.08984824 1.125076 0.06887445 1.133676 0.08556628 -1.533992 1.110119 1.303339 -0.09532189 0.1613734 1.111519 0.008123354 -2.354626 -0.4681621 -0.5779678 -0.9329105 -0.5838058 -0.8807007 -2.747905 -1.800361 -1.785292 -0.5370412 -1.1561 -0.6271735 -1.125632 -0.8034934 -3.413712 -0.5519193 -2.353167 -0.5936756 -2.202482 -1.663349 -2.74948 1.390895 2 0
2.430735 2.47526 3.130056 3.668971 2.727573 4.611297 3.525854 1.335055 0.02207433 1.12208 0.00387479 1.117601 0.05348657 -1.57868 1.077015 1.243325 0.07551289 0.09435385 1.078272 -0.04564854 -1.911261 -0.1063984 -0.4047251 -1.039489 -0.4366417 -0.994957 -2.538122 -1.589768 -1.586419 -0.3483871 -1.364483 -0.4578176 -1.330696 -0.6369507 -3.410944 -0.4223445 -2.641567 -0.4312666 -2.550946 -1.550393 -3.578751 1.163622 2 4
2.353956 2.244406 3.13 3.608042 2.57071 4.667888 3.1451 1.395633 0.02186626 1.015602 -0.01953772 1.000705 0.0474304 -1.541386 1.061102 1.274018 0.3441562 0.06935319 0.9427211 -0.02057972 -1.505359 0.2188886 -0.2908584 -0.8273308 -0.3345438 -0.8310679 -2.520476 -1.523683 -1.376819 -0.2389594 -1.371487 -0.3328483 -1.476765 -0.5495678 -3.440975 -0.3288664 -2.839031 -0.3741128 -2.799431 -1.614495 -4.410832 1.457834 2 8
2.319224 2.082263 3.02318 3.231427 2.471826 4.436784 2.661658 1.435702 0.02810576 0.8384691 -0.07185317 0.836052 0.01148884 -1.312784 1.075614 1.30904 0.6457476 0.07733484 0.7687208 0.02112645 -1.071769 0.6088727 -0.3467944 -0.3359894 -0.366221 -0.3695424 -2.537903 -1.52244 -1.137719 -0.3250273 -1.219417 -0.3844063 -1.65418 -0.6341181 -3.46124 -0.3586848 -3.007191 -0.4765852 -2.970785 -1.913654 -4.932351 2.527968 2 12
2.192943 2.010713 2.828567 2.715221 2.498309 4.091241 2.245157 1.35145 0.06696019 0.7147063 -0.08696774 0.7204596 0.01095071 -0.8831075 1.209204 1.368913 0.844897 0.0760642 0.6847226 0.1012768 -0.5839887 1.01692 -0.5654753 0.1053681 -0.5473319 0.09534862 -2.477477 -1.507123 -0.9395559 -0.5836249 -1.07287 -0.5955239 -1.856312 -0.8569685 -3.435575 -0.5509956 -3.132522 -0.6980707 -3.072582 -2.229318 -5.014755 3.740148 2 16
2.049224 1.917044 2.681952 2.478524 2.658537 3.899072 1.883107 1.289146 0.2013901 0.7020637 0.03359878 0.6867793 0.1330184 -0.3077845 1.488928 1.559562 0.9120247 0.06665783 0.7008719 0.260573 -0.1032304 1.276697 -0.9292444 0.2594056 -0.9131792 0.2780766 -2.392084 -1.470314 -0.9048449 -0.9697527 -1.011155 -0.9651193 -2.019464 -1.23891 -3.445389 -0.9510837 -3.177518 -1.053398 -3.120531 -2.466943 -4.674244 4.697979 2 20
2.134624 2.017674 2.59149 2.715655 2.914979 3.906738 1.704516 1.314509 0.4065626 0.6902645 0.2523433 0.6783953 0.3389787 0.247355 1.792378 1.936826 0.9151735 0.09817833 0.6866038 0.4727063 0.2231676 1.305248 -1.354709 0.1392066 -1.375165 0.1897907 -2.451086 -1.493457 -1.051769 -1.371256 -0.9910343 -1.394319 -2.1914 -1.709277 -3.621384 -1.398819 -3.293542 -1.463709 -3.250572 -2.756035 -4.220244 5.714759 2 24
2.421458 2.469789 2.503569 3.17619 3.204139 3.977264 1.891372 1.354155 0.4696478 0.5251535 0.3623813 0.574408 0.3943182 0.6439725 2.028481 2.415058 0.9216349 0.126758 0.5268996 0.5501961 0.3101621 1.151794 -1.683336 -0.003798831 -1.726581 0.08455081 -2.738497 -1.595247 -1.260974 -1.654745 -0.9501837 -1.704691 -2.348133 -2.054592 -3.891671 -1.669978 -3.465984 -1.761603 -3.392617 -3.017788 -4.048835 6.885834 2 28
2.624275 3.021361 2.447122 3.519019 3.475792 3.94494 2.413628 1.373029 0.2971596 0.2512636 0.2908287 0.3701369 0.2148194 0.8719747 2.20927 2.825142 0.9260294 0.1106198 0.2812639 0.3975804 0.2428611 0.962014 -1.826203 0.1025522 -1.880465 0.2022906 -3.097721 -1.657639 -1.389539 -1.791342 -0.9248832 -1.856835 -2.378004 -2.177658 -4.073033 -1.783809 -3.512722 -1.885693 -3.382101 -3.009305 -4.339634 7.591623 2 32
2.607313 3.356629 2.510663 3.599699 3.669884 3.786715 3.029269 1.429761 0.07929189 0.09691689 0.1494824 0.2493623 -0.003700414 0.9625481 2.340149 3.008725 0.88768 0.02885472 0.1501798 0.1736674 0.1473082 0.8195577 -1.77795 0.4151437 -1.837981 0.5037571 -3.357498 -1.584816 -1.449176 -1.780189 -1.039553 -1.846393 -2.392306 -2.104036 -4.226938 -1.790378 -3.586156 -1.838538 -3.427269 -2.835247 -4.80752 7.683242 2 36
2.594864 3.373128 2.790417 3.578223 3.727537 3.699707 3.383914 1.719105 0.07041127 0.2657264 0.09422354 0.3995476 -0.01270319 0.9663073 2.428641 2.925815 0.8813572 -0.2512743 0.2935125 0.1426643 0.04463733 0.6383608 -1.720535 0.6670163 -1.774028 0.735122 -3.551701 -1.404263 -1.576286 -1.768234 -1.278321 -1.810804 -2.52486 -2.018634 -4.53751 -1.789455 -3.853387 -1.787274 -3.719742 -2.872598 -4.891671 7.723104 2 40
2.842171 3.223401 3.241861 3.75929 3.705357 3.867023 3.387567 2.422616 0.2745239 0.7230403 0.1751645 0.7896399 0.2032366 0.9352543 2.53646 2.753362 1.072284 -0.7514114 0.6822921 0.3432787 -0.09661328 0.3290236 -1.813028 0.6687337 -1.87013 0.7138373 -3.793704 -1.249744 -1.832364 -1.888826 -1.5174 -1.916309 -2.700922 -2.097753 -5.043993 -1.909303 -4.182621 -1.901526 -4.114661 -3.230968 -4.738884 8.001334 2 44
3.240747 3.217586 3.646327 4.114131 3.768948 4.242964 3.259247 3.288091 0.3888595 1.213993 0.1889029 1.221208 0.3362238 0.9317228 2.743123 2.741264 1.489312 -1.223728 1.136685 0.4610988 -0.2583967 -0.05545651 -1.952779 0.4645516 -2.027504 0.4996969 -4.124391 -1.222383 -2.164905 -2.04476 -1.777821 -2.08324 -2.921006 -2.256918 -5.668116 -2.082412 -4.541848 -2.073406 -4.526262 -3.669542 -4.719761 8.800517 2 48
3.500282 3.42978 3.884151 4.243517 3.992856 4.590176 3.172754 3.765666 0.2960666 1.497604 0.061184 1.50389 0.2589172 1.002313 3.076674 2.975985 1.947478 -1.433536 1.437805 0.3786072 -0.3853026 -0.3806796 -2.004601 0.2517111 -2.088406 0.2978011 -4.49699 -1.282917 -2.505591 -2.128294 -2.085284 -2.165854 -3.205045 -2.352577 -6.22594 -2.167021 -4.954897 -2.146033 -4.923573 -3.959395 -4.666239 9.993965 2 52
3.607294 3.576417 4.054564 4.036078 4.314816 4.740211 3.149189 3.796847 0.1348783 1.505098 -0.06586614 1.526575 0.1102161 1.160902 3.501348 3.377141 2.307918 -1.363429 1.451064 0.2460191 -0.4347758 -0.5707846 -1.932596 0.04043929 -2.004541 0.1054111 -4.835194 -1.343863 -2.823807 -2.096848 -2.450337 -2.113591 -3.494675 -2.326842 -6.593747 -2.098517 -5.336699 -2.095682 -5.261366 -4.099104 -4.574066 11.1749 2 56
3.751339 3.5052 4.213493 3.951403 4.672443 4.705194 3.125976 3.675124 -0.1077087 1.344964 -0.2331052 1.345295 -0.1389876 1.387891 3.906167 3.84064 2.659911 -1.078208 1.257166 0.02146792 -0.4016035 -0.6008417 -1.772484 -0.2354396 -1.816117 -0.1633377 -5.094051 -1.326088 -3.033165 -1.947927 -2.896268 -1.960121 -3.792789 -2.175522 -6.840526 -1.906076 -5.655312 -1.945729 -5.606781 -4.179773 -4.674035 12.21795 2 60
3.856755 3.271374 4.303812 4.153584 4.967394 4.499869 3.063474 3.419833 -0.4754787 1.120385 -0.5391771 1.085472 -0.5377497 1.593308 4.140292 4.269209 3.137622 -0.6679795 1.000164 -0.3583094 -0.2589838 -0.4870359 -1.537482 -0.493395 -1.563598 -0.4278044 -5.237713 -1.107651 -3.0632 -1.68759 -3.220871 -1.706777 -3.993954 -1.91218 -7.009425 -1.612172 -5.825323 -1.688483 -5.855139 -4.227705 -4.944855 12.55771 2 64
3.678003 2.862037 4.315059 4.224799 5.048105 4.174368 2.968756 3.052804 -0.8708395 0.8810772 -0.9364273 0.8240221 -0.9655561 1.729114 4.169181 4.550898 3.695344 -0.3105814 0.7666597 -0.8021821 0.03964753 -0.3289602 -1.200942 -0.7663164 -1.238427 -0.7125403 -5.237828 -0.6482145 -3.042639 -1.308304 -3.261015 -1.327988 -3.949432 -1.547259 -7.047506 -1.230872 -5.721885 -1.32865 -5.791307 -4.206698 -5.18103 11.98367 2 68
3.29281 2.429314 4.250928 4.035021 4.947444 3.895323 2.926991 2.70911 -1.17528 0.6754664 -1.270256 0.5943384 -1.277684 1.796444 4.093079 4.663496 4.104943 -0.08212671 0.5835154 -1.155797 0.4237793 -0.1749269 -0.876721 -1.09962 -0.9261129 -1.035767 -5.108555 -0.1579885 -3.072897 -0.9421732 -3.149678 -0.9624422 -3.752901 -1.193852 -6.907236 -0.904281 -5.429998 -0.9925908 -5.500846 -4.060344 -5.373097 11.16193 2 72
3.003048 2.275209 4.103503 3.815558 4.841426 3.741495 3.086354 2.410879 -1.362736 0.4772022 -1.448271 0.3844302 -1.449193 1.762017 3.993716 4.712291 4.197189 0.1524815 0.3818941 -1.330744 0.7628822 0.03399346 -0.7619944 -1.252002 -0.7921657 -1.15365 -4.853735 0.1325971 -3.030419 -0.8033182 -2.961272 -0.825815 -3.551397 -1.044807 -6.586123 -0.7880645 -5.096052 -0.8585323 -5.169214 -3.839877 -5.709978 10.40128 2 76
2.88909 2.399005 3.80753 3.624197 4.689451 3.610373 3.337996 2.31933 -1.547436 0.3335199 -1.596367 0.2787979 -1.612629 1.64215 3.838665 4.722939 4.059186 0.450107 0.2326437 -1.470348 0.9951918 0.3079109 -0.885477 -1.098689 -0.8757089 -0.9953344 -4.46144 0.2334883 -2.809142 -0.9006279 -2.624184 -0.9525738 -3.30542 -1.136887 -6.150362 -0.8746651 -4.672552 -0.9512336 -4.755854 -3.662639 -6.126869 9.694782 2 80
2.84166 2.499171 3.265943 3.395631 4.302993 3.382318 3.253391 2.59915 -1.752601 0.3305678 -1.778252 0.3384376 -1.804063 1.48019 3.565951 4.543109 3.878578 0.6411428 0.2601455 -1.669783 1.091471 0.5872716 -1.088083 -0.9042713 -1.035236 -0.8268511 -3.985076 0.2477289 -2.419323 -1.052098 -2.148614 -1.172209 -2.94446 -1.29863 -5.617722 -1.033698 -4.064704 -1.116919 -4.173143 -3.511522 -6.449403 9.341888 2 84
2.770349 2.308939 2.613729 3.08978 3.673616 3.001494 2.672971 2.952702 -1.883138 0.2594258 -1.895514 0.304222 -1.933549 1.253625 3.163862 4.072296 3.630273 0.6016184 0.2399817 -1.825026 1.081841 0.873872 -1.236346 -0.7495334 -1.144453 -0.6775215 -3.492388 0.2195832 -1.836276 -1.164655 -1.489071 -1.325313 -2.412086 -1.384085 -4.868063 -1.145916 -3.198652 -1.237619 -3.357051 -3.287616 -6.654139 9.413089 2 88
2.523229 1.792004 2.073789 2.618845 2.983958 2.449706 1.93924 2.92799 -1.918858 -0.1240331 -1.918275 -0.0709667 -1.974664 0.9802208 2.668332 3.459833 3.126161 0.44628 -0.1086343 -1.864615 1.099529 1.224613 -1.330995 -0.4156557 -1.214898 -0.3291369 -2.946001 0.2102975 -1.060286 -1.264078 -0.5842724 -1.382894 -1.706876 -1.40128 -3.878892 -1.18524 -2.106725 -1.326491 -2.331996 -2.983197 -6.618013 9.522819 2 92
1.990783 1.185784 1.600381 1.925302 2.41587 1.84507 1.298132 2.51523 -1.900358 -0.601758 -1.916716 -0.5523233 -1.969299 0.7586245 2.192147 2.93242 2.410843 0.328657 -0.5891113 -1.826086 1.204438 1.609686 -1.435956 0.09366482 -1.325912 0.1686089 -2.297342 0.2879484 -0.2099247 -1.390124 0.3711237 -1.425838 -1.020716 -1.437507 -2.82553 -1.237505 -1.058995 -1.423945 -1.356204 -2.605394 -6.300647 9.572535 2 96
1.413021 0.8279513 1.107331 1.159704 2.038367 1.408449 0.715743 2.02 -1.983868 -0.8942023 -2.021491 -0.8606201 -2.06544 0.583043 1.813382 2.566815 1.783141 0.2376078 -0.9103699 -1.887853 1.287128 1.873954 -1.541913 0.5546926 -1.467661 0.5908738 -1.664576 0.402564 0.5532172 -1.525486 1.203538 -1.512133 -0.4684584 -1.49076 -1.873701 -1.332839 -0.2158249 -1.477703 -0.5691811 -2.056401 -5.979929 9.659537 2 100
1.113622 0.7988985 0.6718701 0.6548938 1.86622 1.179329 0.2778271 1.676335 -2.27024 -1.121642 -2.303626 -1.110373 -2.365861 0.3980982 1.531244 2.374282 1.424623 0.08202345 -1.170302 -2.186584 1.311857 1.904696 -1.531334 0.7078645 -1.496367 0.7425392 -1.239359 0.4789884 1.098774 -1.542659 1.900875 -1.526562 -0.01529178 -1.425935 -1.157318 -1.331985 0.4430856 -1.383617 0.09846601 -1.407234 -5.835649 9.685638 2 104
1.057322 0.8862371 0.3421637 0.5417928 1.887799 1.01581 0.09258258 1.610095 -2.6772 -1.350093 -2.725939 -1.351051 -2.798778 0.298289 1.363537 2.332767 1.256543 -0.1772649 -1.420513 -2.658217 1.378299 1.792206 -1.368886 0.4863847 -1.372837 0.5575083 -1.057956 0.4955398 1.428654 -1.374899 2.385476 -1.392011 0.3291714 -1.210428 -0.7210696 -1.170677 0.9269723 -1.169365 0.6579003 -0.9223526 -5.686496 9.483313 2 108
1.017172 0.8195978 0.1713932 0.5885901 2.013038 0.8605061 -0.009540346 1.816367 -3.125916 -1.467409 -3.185897 -1.465567 -3.227727 0.380437 1.276075 2.313677 1.087082 -0.5203159 -1.537692 -3.154391 1.518678 1.730674 -1.148397 0.1468637 -1.187296 0.2134448 -0.9956165 0.4171709 1.652964 -1.11485 2.565531 -1.188405 0.5639985 -0.9771412 -0.3970229 -0.9475187 1.294237 -0.947846 1.093821 -0.6609652 -5.345168 9.062591 2 112
0.8230749 0.5110486 0.1637056 0.5207859 2.126469 0.7354119 -0.2387688 2.043555 -3.46472 -1.560357 -3.499815 -1.539958 -3.479744 0.5581518 1.194532 2.237446 0.8376478 -0.8481581 -1.62014 -3.465795 1.685283 1.831479 -0.9984419 -0.03558719 -1.033857 -0.03288597 -0.9085608 0.245823 1.87058 -0.9260654 2.499421 -1.030735 0.7180488 -0.8677828 0.04169358 -0.8145036 1.632644 -0.8147702 1.454259 -0.473984 -4.956944 8.881127 2 116
0.4464518 0.2204491 0.1587645 0.2548416 2.18868 0.6231349 -0.5505502 2.012906 -3.444182 -1.725987 -3.483829 -1.65641 -3.383506 0.6824526 1.113789 2.181402 0.5655417 -1.07637 -1.765303 -3.381233 1.818477 2.043026 -1.069409 0.02838884 -1.063828 -0.02517769 -0.7558064 -0.01311592 2.114557 -0.9488177 2.420954 -1.068277 0.8413648 -0.9775102 0.5990183 -0.917717 1.99226 -0.8912249 1.787109 -0.3366161 -4.743038 9.185283 2 120
0.1805827 0.1848795 0.07827241 -0.05444557 2.202965 0.4514096 -0.8174709 1.833633 -3.028698 -1.83896 -3.128754 -1.693709 -2.952406 0.7242725 1.031793 2.222889 0.3231295 -1.317896 -1.83662 -2.935533 1.888363 2.187369 -1.30832 0.1308447 -1.275517 0.09248128 -0.6492583 -0.370369 2.30161 -1.123295 2.450593 -1.275211 0.9352779 -1.242056 1.0078 -1.156137 2.276409 -1.141547 1.984011 -0.4166623 -4.71182 9.786579 2 124
0.3208359 0.2539296 -0.0322151 -0.200106 2.131385 0.1197168 -0.9979602 1.775546 -2.555174 -1.766673 -2.691612 -1.586792 -2.499608 0.7599506 0.9082615 2.314745 0.1768143 -1.60641 -1.737771 -2.462194 1.923563 2.241294 -1.491376 0.1028628 -1.469864 0.1279247 -0.6779228 -0.7572954 2.403397 -1.28197 2.438422 -1.458489 0.9071131 -1.482279 1.119608 -1.283648 2.307246 -1.356953 1.931401 -0.7334583 -4.640821 10.50737 2 128
0.6367067 0.2053263 -0.1324515 -0.1865641 2.001041 -0.2811204 -1.093489 1.828611 -2.324844 -1.517241 -2.418616 -1.374866 -2.276136 0.8628058 0.7848064 2.383434 0.1431482 -1.679299 -1.484142 -2.187539 1.969514 2.415646 -1.692986 0.1851661 -1.678399 0.2313418 -0.7395114 -1.098229 2.539819 -1.515884 2.287701 -1.700471 0.7185119 -1.74017 1.125021 -1.424742 2.111853 -1.592033 1.749697 -1.105014 -4.161553 11.22514 2 132
0.7634045 0.03019979 -0.2131206 -0.1645332 1.936921 -0.4848585 -1.204864 1.846008 -2.319722 -1.222738 -2.347355 -1.126428 -2.251803 1.023151 0.7578875 2.404333 0.1277592 -1.465114 -1.167897 -2.108126 2.027245 2.730507 -1.991267 0.442077 -1.947109 0.4404541 -0.7108347 -1.317679 2.722651 -1.8763 2.001891 -2.048419 0.4143099 -2.054539 1.224887 -1.712447 1.849294 -1.937048 1.557655 -1.423012 -3.181474 11.97692 2 136
0.7810352 -0.1291907 -0.2750297 -0.1205019 1.995537 -0.3864893 -1.343014 1.761154 -2.370371 -1.101866 -2.348428 -1.027812 -2.297827 1.106847 0.8160179 2.382294 0.1024823 -1.205889 -1.019346 -2.140625 2.037344 2.974742 -2.189088 0.6029212 -2.102641 0.5532663 -0.6318913 -1.345458 2.890332 -2.118809 1.603221 -2.259087 0.09244654 -2.255503 1.411679 -1.920508 1.61807 -2.192384 1.370477 -1.66961 -2.198007 12.54972 2 140
