Fp1 Fp2 AF3 AF4 Fz F3 F4 F7 F8 FC5 FC6 FT7 FT8 Cz FC1 FC2 C3 C4 T7 T8 A1 A2 CP1 CP2 CP5 CP6 TP7 TP8 Pz P3 P4 P7 P8 PO9 PO10 PO3 PO4 PO7 PO8 O1 O2 Oz ID time
-1.531706 -3.601414 -2.688339 -3.515831 -4.649227 -2.307508 -2.908159 -1.215704 -2.447644 -1.295265 -0.2922693 -1.873606 -0.3361171 -1.025007 -1.646831 -3.498421 -0.128248 0.2372735 -1.365583 -0.8463371 1.405061 2.013945 0.4986079 1.434982 -0.6513824 -0.4333383 2.678675 2.432879 2.695545 0.4116401 1.611123 0.9258395 3.1611 2.752934 3.270028 1.651394 3.109434 1.669418 3.339107 2.004411 -2.153653 3.108159 1 -168
-1.004096 -3.654873 -2.860897 -3.57424 -4.865844 -2.604683 -2.972762 -1.769575 -2.628703 -1.837695 0.06263835 -2.043174 -0.0006390052 -0.966197 -1.9319 -3.446863 -0.4513709 0.3958565 -1.901712 -0.913966 1.40069 2.195318 0.1689175 1.484013 -1.349197 -0.4663116 2.885472 2.339775 2.881691 0.2979411 1.797341 0.8647274 3.322883 2.68318 3.429295 1.664541 3.276018 1.873593 3.509105 2.190638 -1.778526 4.2997 1 -164
-1.332574 -3.61996 -2.746161 -3.567068 -4.787643 -2.525103 -2.923069 -2.361986 -2.833749 -2.565424 0.05235796 -2.38823 -0.005438582 -0.7937357 -2.022704 -3.177978 -0.6827915 0.5961753 -2.371114 -0.6459828 1.430937 2.343765 -0.07723197 1.485248 -1.755608 -0.6520547 2.995329 2.279873 2.956638 0.2374622 1.900678 0.8769808 3.494054 2.58218 3.627192 1.695965 3.466065 2.090722 3.675559 2.311334 -1.23413 4.971252 1 -160
-2.444401 -3.43642 -2.571774 -3.397893 -4.497231 -2.373222 -2.758924 -2.502211 -2.997214 -2.831608 -0.3551025 -2.186462 -0.4213156 -0.4705517 -1.843091 -2.740625 -0.6629587 0.8124543 -2.078522 -0.2152387 1.577096 2.565546 -0.02221407 1.47024 -1.676871 -0.9329718 3.114029 2.379085 3.026254 0.2082182 1.936894 1.11355 3.67212 2.59993 3.842174 1.693348 3.649056 2.292167 3.836916 2.475725 -0.89166 2.043706 1 -156
-3.513686 -3.23232 -2.545299 -3.17587 -4.21896 -2.543787 -2.589835 -2.348133 -3.051225 -2.421555 -0.9208826 -1.541968 -0.9828205 -0.06087245 -1.519247 -2.269126 -0.4047734 1.042176 -1.165954 0.06194969 1.873418 2.873065 0.3162778 1.399348 -1.317503 -1.120286 3.398877 2.612227 3.144757 0.2551405 1.930753 1.569539 3.795015 2.758127 3.975654 1.767618 3.751398 2.505706 3.949991 2.711467 -0.654362 -4.094034 1 -152
-3.367504 -3.135647 -2.507723 -3.057198 -4.017637 -3.018336 -2.485811 -2.214381 -3.050648 -1.819973 -1.315145 -1.14526 -1.325716 0.2641293 -1.220867 -1.908627 -0.05613855 1.209709 -0.4059224 0.01162322 2.189993 3.112636 0.729041 1.173984 -0.9751155 -1.197321 3.758184 2.824411 3.176983 0.4062056 1.770141 1.970998 3.702006 2.886098 3.879813 1.925241 3.639292 2.677869 3.886815 2.858473 -0.4562302 -9.372456 1 -148
-2.12279 -3.095451 -2.263352 -3.021373 -3.79069 -3.212601 -2.405274 -2.090721 -3.08949 -1.387622 -1.460786 -1.247674 -1.431312 0.4774316 -0.994422 -1.692734 0.2509474 1.228082 -0.2095362 -0.4061882 2.405549 3.192742 0.9981268 0.7924988 -0.8197727 -1.24206 4.006605 2.925888 3.027009 0.5956514 1.395976 2.108863 3.327852 2.863021 3.508625 2.062026 3.286733 2.749976 3.597611 2.780282 -0.400468 -11.19712 1 -144
-1.101295 -2.983714 -1.90014 -2.940197 -3.454913 -2.716782 -2.281158 -1.924371 -3.155025 -1.208242 -1.502891 -1.649177 -1.493291 0.7056701 -0.7735018 -1.553026 0.4481964 1.100503 -0.5639523 -1.106571 2.512273 3.149839 0.9786545 0.3128986 -0.900637 -1.318258 4.078773 2.872344 2.74183 0.6025973 0.9473317 1.849383 2.817898 2.691362 2.994202 1.992266 2.826432 2.627527 3.183231 2.466078 -0.4014531 -8.970712 1 -140
-0.8481912 -2.731222 -1.569497 -2.724427 -3.036108 -1.785544 -2.077748 -1.690458 -3.169813 -1.246754 -1.581359 -2.002742 -1.610882 1.012426 -0.4903667 -1.407481 0.5598226 0.8796241 -1.251229 -1.90406 2.542343 3.064095 0.6605821 -0.1932112 -1.260407 -1.510558 3.998532 2.658989 2.415725 0.2949354 0.5747752 1.212281 2.366736 2.421818 2.532152 1.623487 2.389758 2.270682 2.769317 2.048588 -0.3572564 -3.847341 1 -136
-0.8605818 -2.424932 -1.290058 -2.441947 -2.693964 -0.8733699 -1.871079 -1.404459 -3.042441 -1.192031 -1.748847 -2.013634 -1.800247 1.314028 -0.1858088 -1.254124 0.7007673 0.6228963 -1.746599 -2.593212 2.549901 2.979882 0.3281306 -0.6279841 -1.681399 -1.739919 3.837842 2.423079 2.12014 -0.1032261 0.3042477 0.6012883 2.035312 2.16635 2.197781 1.209279 2.036476 1.876646 2.420597 1.748146 -0.2788272 0.3959234 1 -132
-0.8071547 -2.168197 -1.026111 -2.19939 -2.487249 -0.2805171 -1.733927 -1.136391 -2.813096 -0.9127389 -1.833862 -1.805227 -1.902629 1.497434 0.07127374 -1.132551 0.9076495 0.3761044 -1.760245 -2.895189 2.552864 2.830817 0.2404423 -0.9483013 -1.757037 -1.757176 3.606556 2.273746 1.84676 -0.2996181 0.1115972 0.3121461 1.695562 1.966689 1.876727 0.9811014 1.722444 1.599069 2.095813 1.571023 -0.2419025 1.762612 1 -128
-0.6208835 -1.939004 -0.8028128 -1.977705 -2.228498 -0.169273 -1.569619 -0.8438916 -2.662756 -0.6317053 -1.594486 -1.618519 -1.675441 1.512017 0.2783608 -1.021176 1.083121 0.1773113 -1.603409 -2.486352 2.478988 2.514301 0.2288251 -1.135519 -1.564753 -1.653129 3.209606 2.134917 1.528466 -0.2938994 -0.04535241 0.1556824 1.204283 1.722232 1.433688 0.8412092 1.328238 1.352265 1.685866 1.301243 -0.4292028 2.396756 1 -124
-0.09781324 -1.726579 -0.6461617 -1.754843 -1.826411 -0.4194742 -1.327367 -0.6145202 -2.604907 -0.3736851 -1.062201 -1.415157 -1.124609 1.382316 0.4044513 -0.8754945 1.169603 0.09569168 -1.491183 -1.391473 2.278595 2.093657 0.1044209 -1.142336 -1.477684 -1.642747 2.687903 1.942087 1.175957 -0.2891732 -0.1758899 -0.04286923 0.7123016 1.405441 0.9923243 0.6390676 0.9213917 1.047175 1.253326 0.8999987 -0.7226831 3.039567 1 -120
0.9089249 -1.535861 -0.4647107 -1.539077 -1.384445 -0.613018 -1.094359 -0.6364274 -2.467322 0.02290273 -0.5211748 -0.8232563 -0.5241529 1.188331 0.444532 -0.6812618 1.207718 0.1569987 -1.077952 -0.2211537 2.009581 1.763888 -0.009664601 -1.01263 -1.489645 -1.634054 2.200841 1.730236 0.895761 -0.4270793 -0.2772598 -0.1726764 0.481077 1.117208 0.775782 0.3364713 0.6974125 0.6856001 0.9702039 0.5354033 -0.7631052 1.241416 1 -116
2.110233 -1.320002 -0.2060189 -1.291552 -0.9806214 -0.3495139 -0.8772444 -0.8045091 -2.206864 0.5585663 -0.2460706 0.03763932 -0.1643826 0.9989238 0.4911823 -0.4436145 1.242667 0.2526774 -0.3351626 0.3222938 1.761909 1.587493 0.01112927 -0.9018516 -1.36247 -1.65668 1.798057 1.53858 0.7421467 -0.6202531 -0.464128 -0.1670778 0.4371862 0.9129056 0.6954393 0.04638338 0.5907215 0.3439534 0.7854534 0.2942528 -0.5555083 -2.606219 1 -112
2.801105 -1.061858 0.02850755 -1.003774 -0.6362439 0.2911399 -0.6067401 -0.9815698 -1.908503 1.028309 -0.1656295 0.2574145 -0.01925737 0.8318653 0.5869027 -0.2028854 1.273336 0.2968748 0.05923406 0.2589917 1.559722 1.446483 0.08241426 -0.8578489 -1.158028 -1.668458 1.477664 1.375451 0.6586922 -0.7289585 -0.6889851 -0.1265949 0.3512012 0.7550926 0.5250908 -0.05437553 0.4160194 0.1473349 0.5521351 0.11552 -0.2388579 -5.067923 1 -108
2.504682 -0.8906772 0.2197537 -0.8265668 -0.3553384 0.6541623 -0.3574041 -1.092013 -1.631158 1.435538 -0.03311443 -0.08963623 0.1260719 0.687182 0.7357674 -0.03058052 1.361346 0.361385 0.1626514 0.1842454 1.429289 1.267448 0.1721372 -0.7439598 -0.9723268 -1.375507 1.276746 1.280707 0.6171231 -0.6998875 -0.6173854 0.02311394 0.2911039 0.669879 0.3601603 0.03949308 0.2803428 0.1599667 0.3737905 -0.04162645 0.08652145 -7.003471 1 -104
1.571237 -0.9617885 0.4522156 -0.9231541 -0.1522178 0.3798014 -0.3223134 -1.10336 -1.39535 1.869141 0.02418289 -0.2342087 0.1705017 0.5721604 0.9515159 0.04456532 1.5481 0.4672481 0.5680187 0.3616717 1.402109 1.09471 0.3892543 -0.5069651 -0.5973749 -0.8673973 1.199765 1.289326 0.6548216 -0.4751894 -0.2147478 0.3825085 0.4402286 0.7062332 0.4232524 0.1744025 0.3734351 0.2823662 0.4327405 -0.1351234 0.324813 -10.66112 1 -100
0.8864973 -1.120908 0.573104 -1.119065 -0.08476432 -0.08280559 -0.5003536 -1.187074 -1.204746 1.953819 -0.208443 -0.4241293 -0.08415691 0.4379638 1.084636 0.001363467 1.636889 0.4578052 0.850468 0.6042652 1.369855 0.9295815 0.6293455 -0.2910196 -0.08583066 -0.426262 1.156615 1.255763 0.7213438 -0.2053629 0.1969674 0.5919443 0.7180972 0.7121797 0.6689445 0.1556693 0.6287777 0.2827218 0.6410508 -0.1884528 0.4936542 -12.42599 1 -96
1.199869 -1.058156 0.3888885 -1.072407 -0.1598009 -0.2787465 -0.6669056 -1.192311 -1.072857 1.607085 -0.5820752 -0.8246466 -0.4886744 0.2225397 0.9572791 -0.1785648 1.49071 0.248441 0.573689 0.6284432 1.218435 0.7281776 0.6848469 -0.2304033 0.2026156 -0.1417395 1.036969 1.052421 0.7088464 -0.2180111 0.4426666 0.3209129 0.8859001 0.5295457 0.8708408 -0.1217584 0.8249624 0.05541578 0.7602114 -0.2611714 0.3600436 -9.451522 1 -92
2.4952 -0.7514111 0.1555914 -0.7588718 -0.257833 -0.2549475 -0.6640756 -0.7527707 -0.9056575 1.265009 -0.8452311 -0.893293 -0.7664576 -0.05253216 0.6306282 -0.3851924 1.230559 -0.01639395 0.1196048 0.3292386 0.9751354 0.4964119 0.5669962 -0.3418598 0.1262232 -0.1528438 0.795364 0.7709962 0.5796943 -0.5266108 0.4368381 -0.2720858 0.772433 0.2057779 0.8199551 -0.5906023 0.7492762 -0.279108 0.659487 -0.3464509 -0.2594672 -4.106751 1 -88
3.808053 -0.4485184 0.1285312 -0.454914 -0.3377681 -0.2596643 -0.5416954 -0.05149538 -0.6420062 0.8467386 -0.8926241 -0.6030698 -0.8193903 -0.3362945 0.2269883 -0.5036377 0.9315888 -0.1696137 -0.3300883 -0.1188096 0.702134 0.2498973 0.3844626 -0.5346231 -0.1475472 -0.5370395 0.4783176 0.5161682 0.3633436 -0.8021612 0.1423423 -0.90338 0.4174376 -0.1190699 0.5168886 -1.043853 0.4210285 -0.5338811 0.3969492 -0.4409856 -1.032787 2.074045 1 -84
4.368022 -0.3273139 0.1299926 -0.3384165 -0.4992415 -0.3650467 -0.4555276 0.510851 -0.4983031 0.1693708 -0.8074591 -0.319433 -0.7627237 -0.5610403 -0.1662709 -0.5545881 0.6522779 -0.2099648 -0.7131637 -0.6950943 0.4662398 0.04320351 0.306442 -0.6790487 -0.2814754 -1.091897 0.2311379 0.378696 0.1735916 -0.8038633 -0.2046139 -1.299999 0.07926114 -0.2758246 0.210996 -1.220273 0.132565 -0.5900111 0.1618112 -0.4795622 -1.648508 7.834244 1 -80
3.951925 -0.3331028 0.1102973 -0.3456614 -0.7033961 -0.3744585 -0.4568399 0.7648988 -0.4985703 -0.3528045 -0.671959 -0.1190176 -0.6806935 -0.6685972 -0.433971 -0.5438832 0.4955442 -0.1966531 -0.756498 -1.341803 0.296914 -0.03464888 0.4358571 -0.7285331 -0.1350296 -1.497422 0.1154955 0.3873325 0.1098684 -0.5843688 -0.3585239 -1.270994 -0.01771656 -0.2296781 0.1027152 -1.056183 0.07849427 -0.494148 0.0906858 -0.3388758 -1.913074 10.19709 1 -76
2.361519 -0.4267409 0.1961725 -0.4513219 -0.8264802 -0.3856884 -0.5103603 0.6630228 -0.3572513 -0.4684479 -0.4980191 -0.06444852 -0.5583178 -0.6649036 -0.568875 -0.4303665 0.4110634 -0.1516735 -0.502487 -1.631231 0.1698927 0.0005108335 0.6703576 -0.7293816 0.1984344 -1.547969 0.05538455 0.439265 0.1269892 -0.2552933 -0.3384829 -0.8966696 0.1406672 -0.1013017 0.2067543 -0.687507 0.233552 -0.342014 0.2105422 -0.03991289 -1.632513 8.983492 1 -72
0.1902888 -0.5814935 0.2348518 -0.6204458 -0.8823774 -0.7612333 -0.5818544 0.3143294 -0.06389666 -0.4103679 -0.3298692 -0.2964353 -0.3996545 -0.5961382 -0.6774634 -0.255801 0.2951167 -0.08736721 -0.2274002 -1.409741 0.06965218 0.03677206 0.9111342 -0.7164606 0.6733735 -1.233007 0.007765163 0.4998453 0.1371634 0.1417415 -0.2304028 -0.4017023 0.3660574 0.04122496 0.3922878 -0.2557074 0.4465519 -0.1214672 0.4152383 0.261591 -1.004438 6.709711 1 -68
-1.341839 -0.5414261 0.01120484 -0.5650744 -0.8723043 -1.200567 -0.5379966 -0.08433097 0.1773826 -0.3883036 -0.08218168 -0.6753253 -0.1181295 -0.5458161 -0.8111514 -0.1136352 0.123305 -0.007980214 -0.04401257 -0.9372882 -0.04697904 -0.01705493 1.054323 -0.6608244 1.137596 -0.6977359 -0.07699754 0.5506139 0.07547595 0.4962351 -0.1066003 0.03060203 0.4274212 0.1287949 0.4334615 0.1228503 0.4921439 0.1301943 0.4787027 0.386918 -0.4133688 4.629721 1 -64
-1.852098 -0.2142609 -0.4100539 -0.2018637 -0.772051 -1.087426 -0.3138617 -0.4842094 0.3724553 -0.5497857 0.2416024 -0.9324119 0.2193985 -0.5486538 -0.9066842 -0.05279766 -0.1166145 0.03319878 -0.08942115 -0.501708 -0.2068609 -0.1536773 0.9250488 -0.5529085 1.190824 -0.157992 -0.2272146 0.4737445 -0.04603254 0.6422592 -0.02459595 0.2499028 0.4009586 0.06159019 0.3394834 0.3554513 0.3921255 0.2554661 0.3723845 0.2961588 0.1861563 3.394892 1 -60
-1.899543 0.03778523 -0.6771032 0.04481673 -0.6987876 -0.6530526 -0.1437646 -0.9291276 0.6378556 -0.9888878 0.4540196 -0.9625196 0.3948658 -0.5300407 -0.8823402 -0.08899795 -0.4303438 -0.001764346 -0.429718 -0.1684097 -0.3381337 -0.2396852 0.4868912 -0.3556841 0.6335692 0.3731213 -0.2993631 0.2243422 -0.06965286 0.5361267 0.1397715 0.2370699 0.5450148 -0.09464669 0.3833133 0.3974783 0.4286689 0.215054 0.3312761 0.2144491 1.012977 3.153104 1 -56
-2.116822 -0.04995994 -0.5549512 -0.1076458 -0.7330498 -0.5710337 -0.2218886 -1.342359 0.9036081 -1.535152 0.6120821 -0.7385724 0.5206644 -0.4212971 -0.7788643 -0.2017279 -0.7612431 -0.024084 -0.7011071 0.328889 -0.371406 -0.1726654 -0.07646096 0.01893294 -0.1025721 0.9849947 -0.159067 -0.07372152 0.08599071 0.3581247 0.5074288 0.2406419 0.8203642 -0.1672077 0.6180542 0.3721554 0.6559735 0.1590159 0.4676377 0.3239936 1.865951 2.138332 1 -52
-2.728219 -0.2354977 -0.2346904 -0.3567887 -0.7213838 -0.7047265 -0.3452108 -1.552549 1.05641 -1.922537 0.8528633 -0.4377164 0.7778502 -0.2719834 -0.7108268 -0.2834845 -1.031999 -0.009363066 -0.7306616 1.052064 -0.3972638 -0.09145388 -0.6074276 0.4472587 -0.5254011 1.419175 0.01554652 -0.3256485 0.2345697 0.2004222 0.887126 0.3194155 1.007786 -0.1960784 0.8231267 0.3403235 0.8517723 0.1512973 0.6312783 0.4446162 2.398522 0.5094483 1 -48
-3.257858 -0.1255843 0.05552931 -0.2632896 -0.4424596 -0.3618331 -0.189909 -1.268414 1.03558 -1.882893 0.9563329 -0.1850776 0.9234794 -0.1577996 -0.5907736 -0.1947845 -1.134671 -0.03683944 -0.6494929 1.50853 -0.5120655 -0.1816412 -1.006214 0.6544589 -0.5982349 1.3615 -0.07586659 -0.5451098 0.1536041 -0.01100657 1.018364 0.2478809 0.9491968 -0.3308263 0.7980931 0.1425835 0.8040154 0.09269944 0.6026072 0.3165471 2.269023 0.1127311 1 -44
-2.932107 0.3218626 0.2166546 0.2199669 0.08740804 0.4138973 0.262143 -0.3688989 0.7545994 -1.259671 0.6502897 0.2424581 0.6530491 -0.01423748 -0.2426922 0.1011689 -0.9588295 -0.06014005 -0.2897699 1.272728 -0.5954546 -0.3477996 -1.094723 0.6184925 -0.4371614 0.910407 -0.3755414 -0.6748412 -0.08562959 -0.1623315 0.8921594 0.1280543 0.5945876 -0.4809047 0.5090533 -0.1295587 0.4631997 -0.009930572 0.3145984 0.03267499 1.33854 -0.4778007 1 -40
-1.894872 0.753409 0.1710273 0.7229678 0.5890349 0.8554131 0.6972238 0.479879 0.4190693 -0.4688194 0.2146417 0.6050851 0.253503 0.2059466 0.1511765 0.4793887 -0.6783451 0.01354876 0.08597786 0.6560255 -0.5634959 -0.3735039 -0.9503031 0.5441386 -0.3318262 0.4060504 -0.5742686 -0.7223351 -0.2437548 -0.2226949 0.5819443 0.07154692 0.1238611 -0.507641 0.09969768 -0.2394374 0.005835511 -0.08087389 -0.07445565 -0.13223 0.4359352 -1.563472 1 -36
-0.8062019 0.9285217 0.09977675 0.9544153 0.8750352 0.7224715 0.8918439 0.6179992 0.3625762 -0.09498627 0.181925 0.4419736 0.2657666 0.3742234 0.2869112 0.749212 -0.6092452 0.1345215 -0.05513405 0.4540669 -0.5253828 -0.2384296 -0.8782244 0.5413486 -0.5189239 0.1676822 -0.5711922 -0.8262256 -0.3028868 -0.3738559 0.08926773 -0.107608 -0.3531815 -0.4679266 -0.3512782 -0.2634219 -0.4400161 -0.1528944 -0.4587386 -0.1433742 0.346174 -0.9465616 1 -32
0.2620983 1.068615 0.09849706 1.116442 1.016433 0.5918959 1.003778 0.4367799 0.458348 -0.07504623 0.5148047 0.1962014 0.6124554 0.396781 0.2274752 0.8160469 -0.7393317 0.1983555 -0.3655102 0.9027655 -0.5252108 -0.1033709 -0.9492443 0.5736873 -0.8259135 0.3074003 -0.4990994 -0.9719658 -0.4055752 -0.5601725 -0.4546777 -0.3317685 -0.9343359 -0.4264969 -0.8840151 -0.2808659 -0.9341758 -0.2112044 -0.8844773 -0.1492359 0.4807914 0.2320825 1 -28
1.150285 1.308467 -0.05584922 1.384681 1.156036 0.9084272 1.178523 0.6122307 0.3610943 0.008798052 0.6587414 0.5360364 0.7003513 0.3398726 0.1862894 0.7176591 -0.818756 0.1608481 -0.2731751 1.163278 -0.521656 -0.1101621 -1.021138 0.5558155 -0.9935226 0.5181493 -0.5044881 -1.026433 -0.5633357 -0.5384349 -0.8193114 -0.3204771 -1.452695 -0.3340556 -1.342054 -0.1336708 -1.353875 -0.155106 -1.221425 -0.1886978 0.005227913 0.1374444 1 -24
1.410726 1.318369 -0.2064583 1.425447 1.305108 1.455352 1.209748 1.170051 0.07681768 0.2951344 0.3579498 1.314119 0.3079464 0.2873823 0.1797612 0.5213192 -0.7321249 0.0228325 0.2518292 0.5157076 -0.5369639 -0.2581384 -0.9075881 0.4335446 -0.7740023 0.4139362 -0.6120778 -0.9283304 -0.6907826 -0.1870611 -0.9318181 -0.001869408 -1.600979 -0.1269071 -1.480584 0.2513771 -1.454094 0.03609269 -1.2672 -0.1764825 -0.9343544 -0.7526476 1 -20
0.8467157 0.952717 -0.139454 1.054759 1.268231 1.653845 0.9106591 1.594624 -0.1019968 0.5967605 -0.09455872 1.802788 -0.2024528 0.2963941 0.1765699 0.2804934 -0.5476938 -0.1392275 0.8708184 -0.5220368 -0.5501292 -0.4029773 -0.5334207 0.3042985 -0.1281918 0.183048 -0.6484874 -0.7019458 -0.6937103 0.3731404 -0.8162096 0.4748116 -1.400464 0.1523382 -1.31726 0.7102149 -1.253109 0.2731857 -1.059824 -0.03328922 -1.509228 -1.980752 1 -16
-0.5397549 0.5007241 -0.1531845 0.5768018 0.9382398 1.085951 0.4405946 1.520031 -0.0721628 0.710953 -0.4034199 1.540566 -0.5096897 0.4650398 0.2966621 0.08690593 -0.306742 -0.2065969 1.152063 -1.112989 -0.4539965 -0.3858297 -0.05160041 0.3341257 0.5354971 0.2256228 -0.4259524 -0.4464467 -0.5153151 0.8754063 -0.5212467 0.8478392 -1.089946 0.3773144 -1.050417 1.019183 -0.9568854 0.4341378 -0.7704697 0.2127052 -1.220214 -2.983538 1 -12
-2.162428 0.1200693 -0.3134346 0.1748261 0.5359895 0.001239137 0.03697742 1.060083 0.04262313 0.6114006 -0.3720248 0.7710812 -0.4420523 0.7706881 0.5712607 0.002291414 -0.05900101 -0.1968639 0.964816 -1.005447 -0.2953268 -0.2527532 0.2754425 0.5387998 0.8634203 0.4774261 -0.0848713 -0.2993762 -0.2842121 1.148349 -0.2145512 0.9228979 -0.8937461 0.4799845 -0.8737463 1.075156 -0.7664347 0.4165341 -0.5861015 0.3566954 -0.3569796 -2.758695 1 -8
-2.970696 -0.1343786 -0.2771558 -0.09620366 0.3723996 -0.7270625 -0.1789338 0.5721193 0.1543757 0.4634915 0.06842936 0.2599942 0.03256072 1.000342 0.8427595 -0.01295212 0.1097871 -0.222274 0.7203544 -0.3331159 -0.2300433 -0.2154741 0.3559423 0.7628109 0.9214539 0.6027918 0.04212597 -0.2961325 -0.2244154 1.154614 -0.09909456 0.7405241 -0.9462105 0.4635827 -0.9175634 0.9059936 -0.8237882 0.1864581 -0.64451 0.2074958 0.4071244 -1.997487 1 -4
-2.561313 -0.07057697 -0.04436345 -0.02526373 0.5480404 -0.5396932 -0.127897 0.5316761 0.1132372 0.5229536 0.496615 0.668072 0.4943853 1.025236 1.081363 -0.01588984 0.2783098 -0.3431963 0.8419706 0.4606543 -0.262502 -0.370132 0.3471182 0.8085688 0.832314 0.2514645 -0.1653393 -0.3694332 -0.4165196 0.9583473 -0.2721957 0.4258879 -1.284005 0.3180448 -1.220695 0.5975778 -1.155043 -0.166576 -0.9535741 -0.1850255 0.3579419 -1.410662 1 0
-1.466201 0.2451571 0.1271514 0.3302121 0.86287 0.2229536 0.1153298 0.9921769 -0.1541347 0.6910385 0.5985237 1.525802 0.6591609 0.8946394 1.315165 -0.02926157 0.4536529 -0.5637131 0.9976208 1.009128 -0.3418652 -0.6211353 0.330799 0.6654766 0.5800441 -0.562613 -0.5629694 -0.5022933 -0.7730163 0.717941 -0.6593384 0.003759749 -1.830637 0.1020865 -1.713339 0.2882712 -1.654331 -0.5118173 -1.412832 -0.5847666 -0.4973622 0.7126955 1 4
-0.4104912 0.4636082 0.2922027 0.5714488 1.045578 0.9517767 0.3239745 1.365491 -0.3993932 0.5769108 0.6231661 1.783087 0.7399097 0.7053853 1.415247 -0.04422581 0.4635686 -0.8200268 0.8168491 1.372635 -0.4419289 -0.8201876 0.3047252 0.5431527 0.391373 -1.196781 -0.907159 -0.6345654 -1.09435 0.6137376 -0.9864756 -0.3654892 -2.326824 0.01226796 -2.157894 0.1276513 -2.096678 -0.7808923 -1.826952 -0.7736463 -1.233973 3.814236 1 8
0.08128525 0.4477022 0.4796459 0.5351326 1.012539 1.376668 0.3733733 1.265795 -0.4503106 0.1255509 0.6823425 1.321005 0.7925016 0.5318174 1.341181 -0.04941193 0.3131733 -1.056847 0.5759549 1.568525 -0.5126144 -0.9216234 0.3680201 0.562783 0.6049926 -1.175666 -1.074486 -0.6459763 -1.22179 0.7260647 -0.9812741 -0.4673688 -2.461165 0.1021493 -2.268914 0.1071569 -2.220086 -0.9584402 -1.958299 -0.7384546 -1.29518 5.162557 1 12
-0.2639884 0.3798432 0.5171526 0.4415783 0.9018393 1.504339 0.3492841 1.045035 -0.4402013 -0.2602134 0.5419633 0.8577337 0.6250982 0.4591821 1.285584 -0.02022895 0.1919165 -1.263863 0.6241443 1.418812 -0.5114638 -0.963316 0.5866919 0.6025679 1.145508 -0.7892649 -1.113798 -0.5148388 -1.204323 0.9761706 -0.7242222 -0.3431329 -2.251332 0.2107605 -2.060263 0.09131228 -2.034911 -1.034526 -1.78012 -0.5930033 -1.109012 4.519557 1 16
-1.261879 0.3937429 0.4479414 0.4531383 0.926852 1.445024 0.3684323 1.248167 -0.5597902 -0.1262523 0.1320257 1.137237 0.2108581 0.5791145 1.404549 0.1067448 0.254226 -1.429567 1.207502 0.8851286 -0.398288 -0.9544766 0.9943531 0.459465 1.768423 -0.6255031 -1.086953 -0.2744355 -1.179276 1.287906 -0.5852923 -0.07263753 -2.021187 0.3481132 -1.801687 0.09512872 -1.820433 -1.004728 -1.544667 -0.4095489 -1.327338 2.329905 1 20
-2.259622 0.3640209 0.3438398 0.4462523 1.114241 1.281707 0.3850408 1.700164 -0.8405044 0.4152135 -0.2628377 2.095412 -0.1863988 0.8217672 1.601109 0.330552 0.4279666 -1.621375 2.095523 0.1253445 -0.2317892 -0.9247791 1.507501 0.07014906 2.277665 -0.9090825 -1.051425 -0.03023409 -1.206291 1.567478 -0.7596645 0.1846831 -1.888239 0.5932052 -1.614596 0.14903 -1.675985 -0.9781055 -1.409394 -0.2677004 -1.86959 0.08974821 1 24
-2.598453 0.2154148 0.1781304 0.3300957 1.320194 1.037608 0.3523476 1.789433 -1.068831 0.7585937 -0.3749458 2.786972 -0.2959596 1.008501 1.699135 0.5717464 0.4462904 -1.845582 2.431659 -0.5441526 -0.1554858 -0.8894749 1.759705 -0.3530183 2.298669 -1.299491 -1.021087 0.04981335 -1.242446 1.582814 -1.054871 0.1021706 -1.712688 0.763937 -1.441124 0.04823875 -1.520236 -1.108658 -1.288461 -0.2248386 -2.041509 0.5498427 1 28
-2.519655 0.07483333 -0.1266302 0.213136 1.366654 0.6502053 0.3280336 1.308247 -1.059164 0.5376309 -0.2732914 2.577898 -0.1724043 1.074487 1.651652 0.7465287 0.1942247 -1.915374 1.871824 -0.6814377 -0.2071757 -0.7854076 1.520793 -0.4222831 1.702671 -1.206328 -0.9076158 -0.05595412 -1.157665 1.296121 -1.046929 -0.2760795 -1.356032 0.7346949 -1.154755 -0.2650408 -1.25062 -1.319749 -1.032436 -0.2033484 -1.475872 3.021622 1 32
-2.767535 0.01329736 -0.6857314 0.1781141 1.167342 0.09840808 0.3227062 0.4592665 -0.8659256 -0.03237678 -0.1002663 1.698623 0.03166492 1.0273 1.500484 0.8152912 -0.1895318 -1.770617 0.9602824 -0.05844339 -0.3483242 -0.6414331 1.013838 -0.04492086 0.9761458 -0.4320194 -0.7004459 -0.2039655 -0.9499781 1.027492 -0.596665 -0.5353215 -0.8869485 0.6507683 -0.771466 -0.4956615 -0.8660832 -1.379622 -0.6771753 -0.1641405 -0.4244184 4.647976 1 36
-3.218773 -0.02252181 -1.222328 0.1733888 0.890555 -0.3367833 0.3240045 -0.2451155 -0.5582122 -0.3850563 0.09669397 0.8806568 0.2636392 0.8929741 1.330739 0.8178776 -0.5137038 -1.601289 0.3749192 0.9537249 -0.5281265 -0.5577784 0.5501131 0.4089648 0.6173607 0.5300957 -0.5030122 -0.2857005 -0.8315882 1.008103 -0.07864848 -0.5172385 -0.6288146 0.6316836 -0.5902213 -0.4866553 -0.6402333 -1.287652 -0.5010218 -0.2169077 0.5362917 4.475569 1 40
-3.348989 -0.08104591 -1.320561 0.1246706 0.7174131 -0.3882161 0.3104422 -0.2859616 -0.2034475 -0.2675189 0.1615648 0.9553804 0.3620074 0.738953 1.211998 0.7905707 -0.6993906 -1.561867 0.5319911 1.587784 -0.6626623 -0.487666 0.2657644 0.6052752 0.6810898 1.085192 -0.360286 -0.314002 -0.8672226 1.160953 0.2209246 -0.3141946 -0.6548216 0.6761883 -0.6648167 -0.3536329 -0.6757648 -1.223119 -0.5566267 -0.3479906 0.847636 2.603997 1 44
-2.982604 -0.1354392 -1.09877 0.06358057 0.6375054 -0.1629868 0.2523497 0.2692242 0.003319545 0.05557004 -0.02900106 1.961499 0.1823171 0.6172521 1.108971 0.7632509 -0.7971491 -1.637177 1.285142 1.529709 -0.72603 -0.3731299 0.1566104 0.5188944 0.9873748 1.066603 -0.2759004 -0.3509104 -0.9307663 1.349556 0.3138851 -0.03750564 -0.7462701 0.737134 -0.7468548 -0.2028063 -0.7563735 -1.239393 -0.6184616 -0.4075657 0.3860191 0.009338206 1 48
-2.097056 -0.08075742 -0.9106843 0.1208847 0.6785668 0.1442214 0.2548099 0.9862593 -0.02235876 0.3384472 -0.3306577 2.954659 -0.1399647 0.5242045 0.9618189 0.7965523 -0.87383 -1.756834 1.950605 1.262016 -0.7880726 -0.3300146 0.08766497 0.2921138 1.331996 0.6524674 -0.3274058 -0.4727493 -1.032605 1.433285 0.2332092 0.06243803 -0.8408723 0.6896313 -0.7841152 -0.2208037 -0.8118582 -1.356147 -0.6325635 -0.4455011 -0.4863358 -1.014744 1 52
-1.27085 0.08862932 -0.9109108 0.3042124 0.8560343 0.3609595 0.3918169 1.585016 -0.1786672 0.3942424 -0.5705751 3.332456 -0.4206418 0.4574849 0.7757759 0.8691552 -0.970717 -1.888596 2.108281 1.105432 -0.8819823 -0.4094951 -0.05186556 0.06357176 1.607398 0.1340074 -0.5167654 -0.6617044 -1.201368 1.318515 0.07653081 -0.1484723 -0.9167373 0.5316756 -0.7898849 -0.4930857 -0.850268 -1.525957 -0.6337894 -0.5524624 -1.34484 0.8284733 1 56
-1.462069 0.1841262 -1.102442 0.4072753 0.9392607 0.2455002 0.469161 1.85137 -0.4021656 -0.1574371 -0.7375027 3.105647 -0.6366258 0.4828993 0.5119169 0.8919495 -1.159831 -1.983197 1.820101 0.742985 -0.8976621 -0.4375289 -0.1891267 -0.1082721 1.869398 -0.2970636 -0.5731976 -0.7303286 -1.253695 1.227121 -0.02447592 -0.3468184 -0.8602505 0.5295312 -0.671867 -0.6146733 -0.7792252 -1.461563 -0.5328866 -0.5088996 -1.83674 4.487309 1 60
-2.529079 0.1102657 -1.265997 0.3155345 0.7396273 -0.1175986 0.3329364 1.704469 -0.5772587 -1.279789 -0.8267121 2.541203 -0.7745832 0.5973215 0.1078096 0.8841228 -1.474464 -1.966372 1.378729 0.05166255 -0.742347 -0.2822805 -0.2110733 -0.1815162 2.099494 -0.5562381 -0.302494 -0.587064 -1.064558 1.374021 -0.02193082 -0.2173013 -0.6490831 0.7781292 -0.4329745 -0.3078937 -0.5864096 -1.081432 -0.2853083 -0.1514273 -1.762188 7.220085 1 64
-3.337767 -0.04565679 -1.16796 0.1174957 0.3950129 -0.3460526 0.1342121 1.335652 -0.4909092 -2.292858 -0.7832386 2.176131 -0.7703996 0.6760368 -0.3632402 0.9460198 -1.837936 -1.82449 1.085162 -0.5756156 -0.5510843 -0.04961367 -0.2001421 -0.1232742 2.084216 -0.5298381 0.09718587 -0.3958878 -0.7919579 1.494636 0.09608186 0.0103229 -0.3981623 0.9923635 -0.2028475 0.02505537 -0.3672586 -0.7787371 -0.008658192 0.2447656 -1.236922 7.560115 1 68
-3.429839 -0.2372061 -0.8596688 -0.1253054 0.1275438 -0.3372538 0.02623198 0.9490316 -0.1424529 -2.735858 -0.5872897 2.146473 -0.5957677 0.6803619 -0.7512518 1.064291 -2.115948 -1.593021 0.9010416 -0.7606395 -0.5013249 0.09569525 -0.3539857 0.03955165 1.706128 -0.1579596 0.3742048 -0.3301348 -0.6264529 1.338068 0.3169676 -0.001530236 -0.2115918 0.9938528 -0.05470848 0.0142412 -0.187719 -0.8248443 0.166008 0.3388339 -0.5167471 6.760001 1 72
-3.146576 -0.4534844 -0.3895631 -0.4024043 0.01089681 -0.2269442 -0.03144095 0.7027169 0.2506963 -2.689944 -0.2332274 2.286604 -0.2553787 0.6793165 -0.9516211 1.138922 -2.177032 -1.349428 0.733227 -0.5005339 -0.5612878 0.1021458 -0.6495945 0.2117079 1.091258 0.3211517 0.465327 -0.3778721 -0.5968196 1.083022 0.4839818 -0.1867771 -0.1682789 0.8949195 -0.01602199 -0.1988957 -0.1128477 -1.045469 0.1531632 0.1179572 0.1169434 5.877411 1 76
-2.761165 -0.5938039 0.07569181 -0.5952447 0.03018778 -0.2375372 -0.04698402 0.6320496 0.5307184 -2.423094 0.268976 2.514399 0.2324154 0.6959898 -0.9502743 1.131776 -2.013672 -1.182216 0.6383727 0.02786146 -0.615903 0.0009734089 -0.8637157 0.3187835 0.5246965 0.5582968 0.4025657 -0.4466993 -0.6629018 0.9090056 0.399234 -0.3900606 -0.3404652 0.7889463 -0.1613208 -0.4060636 -0.2354972 -1.238325 -0.09609825 -0.2224793 0.5078709 5.294736 1 80
-2.469171 -0.5243974 0.1077182 -0.5238071 0.205088 -0.4830267 0.09041581 0.6437511 0.6253564 -2.049103 0.6790681 2.568354 0.6461489 0.6836414 -0.7662671 1.067102 -1.745295 -1.109761 0.6335959 0.626556 -0.6342745 -0.1302722 -0.8658609 0.3505943 0.3663184 0.5137715 0.2661833 -0.5094563 -0.7891454 0.8188319 0.1366803 -0.5682953 -0.6346886 0.6977971 -0.4475582 -0.5409717 -0.5309235 -1.406051 -0.4627989 -0.5281075 0.5937722 5.398419 1 84
-2.619592 -0.3532634 -0.2404889 -0.3104919 0.5102534 -0.7697482 0.3167377 0.7573195 0.5647083 -1.441602 0.691776 2.403007 0.6710181 0.5848024 -0.4254014 0.9532192 -1.440009 -1.141792 0.8832808 0.9539373 -0.6351675 -0.2520004 -0.6304654 0.2620732 0.8756027 0.4202118 0.1491787 -0.5660756 -0.9266846 0.9173184 -0.04278694 -0.5436226 -0.8335589 0.6794118 -0.6676204 -0.4559199 -0.7926953 -1.550323 -0.7224556 -0.7244034 0.279858 5.212463 1 88
-3.24212 -0.3513249 -0.4282749 -0.2881114 0.796653 -0.9255931 0.4145403 0.9925058 0.4999195 -0.5506827 0.5069005 2.403248 0.47826 0.3877595 -0.04993127 0.7610651 -1.089297 -1.277502 1.560281 1.008685 -0.6555502 -0.4150106 -0.2296134 0.03076662 1.852998 0.4222786 0.06629431 -0.5653529 -1.06036 1.266625 -0.07363207 -0.1697788 -0.8776947 0.739873 -0.7403192 -0.06960709 -0.8793757 -1.588552 -0.8197904 -0.7868757 -0.2884551 3.234158 1 92
-3.515347 -0.4631306 -0.3362782 -0.3989868 0.9672649 -0.8569865 0.4208184 1.255541 0.4543175 0.3459248 0.4644831 2.68536 0.4444428 0.1276424 0.2203121 0.4694344 -0.7186416 -1.466249 2.269283 1.351989 -0.7180514 -0.6454132 0.07664717 -0.2166 2.511654 0.4556147 -0.04656195 -0.4883747 -1.229528 1.539739 -0.1210125 0.2506057 -0.9254026 0.8237404 -0.7996244 0.3082637 -0.9101275 -1.472787 -0.8856259 -0.7389834 -0.8872975 0.3979532 1 96
-2.826146 -0.4216883 -0.3004133 -0.335629 1.03138 -0.5004442 0.4938758 1.476635 0.3859459 0.8838481 0.4286433 3.043111 0.4661495 -0.2124112 0.3300755 0.08069129 -0.4178362 -1.708379 2.443931 2.103894 -0.8109571 -0.9212914 0.07963712 -0.3833878 2.274311 0.5110672 -0.2092776 -0.4293443 -1.436428 1.434815 -0.2749858 0.3180431 -1.055119 0.9092381 -0.9160681 0.3558094 -0.9930614 -1.239152 -0.980325 -0.5959188 -1.509371 -0.5734478 1 100
-1.493506 -0.1694867 -0.4114015 -0.04373759 1.040111 0.1931643 0.6175731 1.727584 0.3270855 1.069027 0.2319244 3.425765 0.3249206 -0.6597012 0.3441432 -0.3390468 -0.2498229 -2.010831 2.247601 2.583472 -0.9532568 -1.234505 -0.0910249 -0.57843 1.590112 0.5911995 -0.403892 -0.4534893 -1.671655 1.156886 -0.5207687 0.1321186 -1.195635 1.001353 -1.05164 0.1878607 -1.108038 -0.9846458 -1.060684 -0.3885766 -2.260364 0.5421417 1 104
0.101808 0.1235389 -0.426074 0.2763662 1.060799 1.156192 0.7074934 2.083106 0.1552311 1.188851 0.03234041 3.577515 0.1365759 -1.118579 0.4080667 -0.6745665 -0.183269 -2.305342 2.148199 2.475237 -1.140763 -1.538809 -0.1505853 -0.8341573 1.322692 0.5859711 -0.610199 -0.4723017 -1.908154 1.045093 -0.8288521 0.05172068 -1.32784 1.130874 -1.176775 0.09120148 -1.248236 -0.7654241 -1.105483 -0.1766906 -3.225447 1.358758 1 108
1.515148 0.2461731 -0.2279151 0.3982795 1.096133 1.984431 0.6985499 2.326504 -0.183527 1.31729 -0.06037699 3.04873 0.02692213 -1.443421 0.5363325 -0.8807635 -0.1453622 -2.531694 2.085236 2.230115 -1.272323 -1.741858 -0.03480198 -0.9478599 1.572808 0.5995349 -0.7482031 -0.3681124 -2.035919 1.127265 -1.027682 0.1920689 -1.412782 1.328942 -1.215223 0.1796675 -1.336143 -0.5179095 -1.087675 0.05498479 -4.092255 0.7466091 1 112
2.126184 0.1441554 0.05264508 0.2799828 1.094573 2.448266 0.5724346 2.284182 -0.4826612 1.32785 -0.2546616 2.115089 -0.1655673 -1.59083 0.6367416 -1.016707 -0.05312369 -2.706627 1.807886 1.911141 -1.265357 -1.843867 0.1004882 -0.885391 1.782901 0.6880594 -0.7572954 -0.1290507 -2.020857 1.251612 -1.007636 0.3908368 -1.376394 1.572528 -1.131027 0.3812833 -1.289569 -0.1580418 -0.9931589 0.3386142 -4.47131 0.2917522 1 116
1.914268 -0.196757 0.2860552 -0.07327791 0.9665715 2.58082 0.2752543 2.207234 -0.7240418 1.267964 -0.6962242 1.621103 -0.5815334 -1.653213 0.6656599 -1.211521 0.1666995 -2.8973 1.578698 1.249136 -1.142523 -1.91393 0.2703967 -0.8578629 1.817991 0.5364746 -0.6254728 0.2164781 -1.918213 1.469385 -0.9018326 0.6392207 -1.215971 1.895616 -0.952239 0.7121524 -1.09807 0.3614969 -0.805604 0.6877247 -4.689681 0.7688259 1 120
1.203151 -0.8155115 0.4988499 -0.7012556 0.6238666 2.182981 -0.2556106 2.242024 -0.9718473 1.276065 -1.109456 1.742635 -0.9953821 -1.72433 0.5837225 -1.523053 0.4854578 -3.088277 1.838622 0.6741757 -0.9733061 -1.903888 0.6810575 -0.830553 2.027009 0.1342354 -0.328106 0.647115 -1.681926 1.925925 -0.7440083 1.202192 -0.8989882 2.383254 -0.6274421 1.309088 -0.7260536 1.048646 -0.4527179 1.189417 -5.030197 -0.5174959 1 124
0.1025108 -1.521828 0.6582038 -1.417897 0.1205456 1.216099 -0.8371261 2.172065 -1.057341 1.256428 -1.264358 1.999218 -1.159483 -1.812874 0.3918539 -1.859655 0.7597706 -3.196233 2.449841 0.572686 -0.8474026 -1.781812 1.274975 -0.606834 2.452575 -0.1076906 0.05006799 1.033398 -1.289481 2.457497 -0.409365 2.007931 -0.3631331 2.894478 -0.09658358 1.999971 -0.1798746 1.729104 0.07141525 1.790464 -5.121611 -4.530423 1 128
-0.881777 -2.004348 0.557788 -1.905589 -0.3805268 0.1895104 -1.189658 1.956843 -0.9606534 1.085528 -1.347878 2.148618 -1.229304 -1.931266 0.2052386 -2.156902 0.8947189 -3.243286 2.968307 0.5093742 -0.8379409 -1.692907 1.764822 -0.3062944 2.87103 0.09278835 0.3167039 1.226359 -0.9049695 2.8249 0.1050861 2.620616 0.2876643 3.168373 0.5420207 2.418266 0.4168982 2.129355 0.6250844 2.208958 -4.941069 -8.220467 1 132
-1.121308 -2.173165 0.1776953 -2.077807 -0.7840771 -0.504402 -1.277094 1.788476 -0.7617199 0.8998839 -1.453978 2.137336 -1.343504 -2.14973 0.07203048 -2.460591 0.9237366 -3.322553 3.16338 0.1673694 -0.9271576 -1.764685 2.019152 -0.1617767 3.126113 0.7720018 0.360687 1.238307 -0.6988487 2.980507 0.6814935 2.821272 0.8414428 3.179507 1.074699 2.447505 0.8938407 2.204424 1.034488 2.306583 -4.828907 -9.50066 1 136
-0.9113039 -2.173604 -0.2264328 -2.082594 -1.09105 -0.9278528 -1.260743 1.794502 -0.412908 0.9301933 -1.384668 2.175198 -1.326574 -2.507149 -0.1010945 -2.782337 0.9103279 -3.459786 3.157589 -0.1799892 -1.071574 -1.977417 2.067261 -0.164547 3.121765 1.573325 0.2040826 1.138845 -0.6752735 2.916709 1.185185 2.706875 1.252542 3.058157 1.421438 2.191845 1.217576 2.097455 1.285592 2.218122 -4.86837 -9.039379 1 140
-0.7628683 -2.104791 -0.3646991 -2.011209 -1.266124 -0.9659675 -1.241171 1.973851 -0.07776491 1.266377 -1.053254 2.654077 -1.050581 -2.896608 -0.3241817 -2.974147 0.875356 -3.550951 3.318848 -0.1561087 -1.258096 -2.183831 1.961317 -0.1783048 2.937387 1.950391 -0.03258198 0.9800524 -0.7366132 2.697369 1.472101 2.531208 1.506935 2.897604 1.602368 1.88172 1.418116 1.873064 1.418215 2.089233 -5.090383 -9.02543 1 144
-0.801767 -1.956263 -0.1753285 -1.856376 -1.288229 -0.5069804 -1.192152 2.02612 0.03408652 1.61842 -0.5539241 3.089665 -0.5451151 -3.14752 -0.5408981 -2.881948 0.7530994 -3.463922 3.497733 0.511498 -1.467524 -2.236825 1.694993 -0.1015019 2.68452 1.899845 -0.2271443 0.7990496 -0.7911887 2.434513 1.537848 2.434395 1.563421 2.732559 1.655892 1.733762 1.493795 1.557501 1.42832 1.955022 -5.242686 -10.15868 1 148
-1.224914 -1.796213 0.06166347 -1.694188 -1.231077 0.08048368 -1.06615 1.675586 0.019505 1.623863 -0.137475 2.652658 -0.05359231 -3.207548 -0.7074253 -2.56379 0.5137287 -3.222673 3.153534 1.613682 -1.67341 -2.178559 1.253701 0.07318235 2.335675 1.883227 -0.367691 0.6090206 -0.8137671 2.223713 1.548733 2.369345 1.596855 2.560099 1.742415 1.756336 1.568906 1.304231 1.45013 1.840208 -4.917894 -10.65407 1 152
-1.651672 -1.654228 0.1428538 -1.549733 -1.113965 0.662413 -0.8265188 1.151706 0.008314067 1.413869 -0.03387785 1.539803 0.1136482 -3.160656 -0.7100393 -2.174345 0.2759061 -2.931723 2.307538 2.423395 -1.849266 -2.11501 0.6889055 0.2475278 1.829273 2.094767 -0.5011821 0.4284768 -0.8523381 2.073624 1.568444 2.264376 1.685078 2.394479 1.854048 1.77124 1.663915 1.259027 1.54371 1.764383 -4.297641 -9.74862 1 156
-1.389325 -1.486502 0.09334588 -1.370465 -0.971526 1.258135 -0.5518564 0.6617818 0.02502411 1.143709 -0.1197621 0.4045861 0.04701933 -3.083917 -0.5415341 -1.799833 0.05715051 -2.602558 1.298968 2.768551 -1.985331 -2.010319 0.01568935 0.4206518 1.100822 2.484362 -0.5918795 0.2462393 -0.8766747 1.767575 1.581319 2.028045 1.710861 2.292562 1.852674 1.598439 1.680971 1.364876 1.611914 1.754824 -3.648194 -8.240364 1 160
-0.8770178 -1.406547 -0.1137702 -1.266166 -0.9165089 1.393604 -0.4209749 0.1396416 0.1535 0.6514011 -0.2300922 -0.3141165 -0.05225465 -2.953362 -0.3970409 -1.467314 -0.2639269 -2.241533 0.4206414 3.026466 -2.080307 -1.789552 -0.6815013 0.6938224 0.2873637 2.948607 -0.535959 0.06180551 -0.7771931 1.235304 1.629855 1.709691 1.740582 2.313238 1.840297 1.325155 1.719811 1.507551 1.692781 1.873822 -2.830763 -6.74901 1 164
-0.7473131 -1.55657 -0.4248319 -1.384298 -0.9621895 0.8603049 -0.4847891 -0.2368295 0.3683143 0.004828672 -0.5046871 -0.3840073 -0.3268901 -2.73199 -0.3972816 -1.188486 -0.6067224 -1.974817 0.003316272 3.032423 -2.092912 -1.485416 -1.131552 0.9695215 -0.2137357 3.190187 -0.2877002 -0.03763463 -0.5667567 0.8189812 1.687866 1.561854 1.864768 2.47841 1.933736 1.248378 1.870948 1.704446 1.832632 2.1107 -2.017403 -5.796793 1 168
-0.8806421 -1.865204 -0.6410577 -1.66898 -1.074879 0.09619365 -0.6651667 -0.2872834 0.5051339 -0.3694257 -0.9265879 -0.003623951 -0.767417 -2.451669 -0.4419344 -0.9865177 -0.7378006 -1.876137 0.205715 2.531503 -1.977644 -1.229743 -1.139967 1.075425 -0.1262817 3.073726 0.09969901 0.04352899 -0.3472989 0.8016247 1.667294 1.753233 2.004666 2.75922 2.077193 1.474592 2.041547 1.993853 1.94683 2.358111 -1.561198 -6.482605 1 172
-1.329142 -2.13323 -0.6321298 -1.936638 -1.215594 -0.4024612 -0.8484083 -0.1281125 0.5758076 -0.2517335 -1.155886 0.4605149 -1.013669 -2.204654 -0.3649698 -0.8705473 -0.6122333 -1.855009 0.7681719 1.787201 -1.792588 -1.150853 -0.8491726 1.003485 0.3325913 2.781609 0.4658295 0.2482427 -0.2084167 1.034639 1.514141 2.101341 2.049745 3.036229 2.146201 1.781816 2.09304 2.263851 1.949163 2.457893 -1.419437 -8.476657 1 176
-2.008204 -2.222774 -0.4563167 -2.047138 -1.312266 -0.4216141 -0.9200758 0.1140068 0.6529338 0.01388462 -1.014858 0.6690186 -0.8954428 -2.126011 -0.2030947 -0.8607956 -0.4215364 -1.853381 0.9901135 1.117276 -1.702089 -1.246994 -0.6551594 0.8666668 0.5404917 2.515487 0.6427767 0.3778903 -0.2063391 1.122305 1.270628 2.141042 1.947961 3.140507 2.059062 1.846114 1.976654 2.336733 1.82148 2.30162 -1.516392 -8.374196 1 180
-2.124214 -2.110518 -0.30502 -1.957332 -1.380315 -0.06429309 -0.8822963 0.2871526 0.7243679 -0.03958762 -0.5740707 0.4028908 -0.5000043 -2.268655 -0.2340889 -0.9970682 -0.4301447 -1.89966 0.4298043 0.7329678 -1.80689 -1.384101 -0.8355826 0.8446395 0.1295811 2.45071 0.654718 0.328659 -0.2845988 0.8079989 1.054533 1.658588 1.712838 3.047112 1.835645 1.55321 1.751183 2.216358 1.591483 1.998832 -1.7593 -4.375606 1 184
-1.231384 -1.902567 -0.2465061 -1.762388 -1.494301 0.3991892 -0.8688251 0.252795 0.8329926 -0.5563189 -0.1253862 -0.2535338 -0.07814494 -2.519442 -0.5800197 -1.221896 -0.7635278 -1.998327 -0.6585642 0.6209991 -2.013033 -1.451887 -1.325877 0.9742284 -0.648087 2.625376 0.6574646 0.1794452 -0.3016745 0.2167278 0.9019051 0.9318494 1.412455 2.921862 1.561818 1.1121 1.493367 2.107436 1.326521 1.807786 -1.878294 1.543572 1 188
0.02480723 -1.774821 -0.2147875 -1.642442 -1.643594 0.6543532 -0.9361207 0.1173225 1.007581 -1.307203 0.01255379 -0.9416339 0.1079508 -2.720238 -1.004223 -1.403319 -1.25119 -2.108669 -1.630172 0.7427621 -2.150353 -1.478823 -1.847392 1.130634 -1.222649 2.886733 0.6860083 0.06109619 -0.218714 -0.2820191 0.8139506 0.4055397 1.190683 2.887182 1.383523 0.8061331 1.310462 2.153158 1.160087 1.820469 -1.780201 6.195639 1 192
0.7085817 -1.807896 -0.1195963 -1.683362 -1.70284 0.585938 -0.9991182 0.09917436 1.215636 -1.756094 -0.05379647 -1.042385 0.1301086 -2.774641 -1.208975 -1.481132 -1.560405 -2.161087 -1.750175 1.310772 -2.123335 -1.518529 -2.142547 1.301897 -1.254146 3.128363 0.6706201 0.08117988 -0.1304212 -0.4619642 0.8409757 0.4034838 1.159511 2.931898 1.372804 0.7468859 1.279159 2.328602 1.16945 1.899961 -1.556326 5.923778 1 196
0.4703209 -1.934485 0.0501886 -1.813356 -1.58306 0.3491642 -1.020766 0.205844 1.345874 -1.54849 -0.0491117 -0.371098 0.1819043 -2.669393 -1.114902 -1.465916 -1.540364 -2.13371 -0.9239653 2.145357 -1.939719 -1.504472 -2.14166 1.512499 -0.9168937 3.266213 0.6214781 0.2479618 -0.07947145 -0.3750451 0.9600445 0.9055895 1.295679 3.067196 1.484024 0.9117119 1.367015 2.592021 1.300996 1.986276 -1.351196 0.2096664 1 200
-0.7453302 -1.936617 0.04789511 -1.790016 -1.310414 0.2034143 -0.9648883 0.2962654 1.149017 -0.8470299 0.03211569 0.4830191 0.2485529 -2.440695 -0.7968683 -1.361325 -1.301194 -2.075893 0.1555616 2.691738 -1.70027 -1.352024 -1.933523 1.698201 -0.5608926 3.187094 0.6174568 0.4326922 -0.009709827 -0.2451782 1.068193 1.517046 1.504335 3.31892 1.672039 1.131028 1.515926 2.885085 1.480464 2.164603 -1.419313 -6.709393 1 204
-2.477455 -1.705232 -0.2685857 -1.499663 -0.9518464 0.3933104 -0.773889 0.2313447 0.5818042 -0.170324 -0.008075655 0.7155106 0.1643803 -2.157882 -0.3864531 -1.173494 -1.047637 -2.034839 0.6063451 2.809779 -1.516171 -1.112285 -1.694293 1.814675 -0.5203868 2.944828 0.7072766 0.5081813 0.1070807 -0.3304748 1.1028 1.736069 1.698096 3.571108 1.86742 1.117191 1.681857 3.05462 1.666253 2.419271 -1.706181 -9.964006 1 208
-3.448246 -1.487319 -0.5941015 -1.240907 -0.6830293 0.8019739 -0.6012111 -0.08808732 0.007894321 -0.14847 -0.3131496 -0.006939931 -0.1796489 -1.894603 -0.1285772 -0.9507771 -0.975356 -2.037364 -0.04014288 2.614142 -1.416739 -0.914761 -1.604943 1.825112 -1.026716 2.752473 0.8884726 0.4825406 0.222289 -0.6772712 1.118109 1.393486 1.861486 3.682102 2.030972 0.808589 1.858894 3.073598 1.859775 2.660656 -1.719603 -7.764623 1 212
-3.177544 -1.497084 -0.7578413 -1.255627 -0.6930099 0.9717509 -0.6238654 -0.6088349 -0.2337129 -0.9835583 -0.7656844 -1.149995 -0.6572737 -1.66615 -0.1800607 -0.7582524 -1.136812 -2.096303 -1.374372 2.107034 -1.352824 -0.8227571 -1.703809 1.725477 -1.914378 2.780211 1.15371 0.4504089 0.2892683 -1.08773 1.210009 0.8008925 2.026852 3.715068 2.190806 0.4618552 2.052776 3.105098 2.067662 2.896163 -1.199512 -2.308124 1 216
-2.583522 -1.696844 -1.08788 -1.453362 -0.9365894 0.5889217 -0.8076683 -1.213178 -0.2195569 -2.203484 -1.177109 -2.148254 -1.087866 -1.522161 -0.4497813 -0.678054 -1.38824 -2.225983 -2.69664 1.405298 -1.274618 -0.8005092 -1.867899 1.585636 -2.712042 2.919141 1.489148 0.4784306 0.3285724 -1.309261 1.341979 0.3621618 2.242516 3.831264 2.368915 0.3878286 2.267514 3.279621 2.296506 3.184715 -0.4413075 3.623585 1 220
-2.490653 -2.029814 -1.681577 -1.744272 -1.234054 -0.2802379 -1.10113 -1.712606 -0.2935696 -3.172583 -1.533918 -2.827276 -1.4477 -1.478191 -0.7276201 -0.7569694 -1.524496 -2.40507 -3.557381 0.7920595 -1.134689 -0.7555318 -1.916573 1.487086 -3.098933 2.88012 1.858393 0.6263021 0.4132744 -1.205707 1.427457 0.3246821 2.554708 4.110108 2.61363 0.7240997 2.553885 3.639362 2.599974 3.607871 0.04780791 7.849602 1 224
-2.86375 -2.42856 -2.02922 -2.110449 -1.464348 -1.144648 -1.457019 -1.951153 -0.6020437 -3.598965 -1.816784 -3.131746 -1.698135 -1.407723 -0.8211355 -0.8933647 -1.470635 -2.551514 -3.903599 0.4677153 -0.907958 -0.642194 -1.845631 1.512685 -3.286717 2.60773 2.236923 0.9007099 0.5778528 -0.9390259 1.489926 0.5689852 2.846544 4.469282 2.892731 1.217329 2.843956 4.020974 2.919472 4.134233 0.08672025 9.17258 1 228
-3.107457 -2.784398 -1.87424 -2.480791 -1.598547 -1.442073 -1.7645 -1.992202 -1.060114 -3.561964 -1.958623 -3.264761 -1.79328 -1.292595 -0.7449322 -1.0204 -1.307624 -2.65161 -4.048502 0.2916346 -0.6878246 -0.5779537 -1.792442 1.600709 -3.466737 2.184985 2.556138 1.193719 0.7270186 -0.7350107 1.544185 0.7055549 2.942164 4.713752 3.06847 1.467966 2.982802 4.168741 3.08776 4.517741 -0.2362648 9.49147 1 232
-2.893743 -3.035421 -1.555888 -2.769765 -1.637115 -1.091546 -1.972621 -1.897492 -1.600248 -3.223935 -2.003029 -3.516835 -1.84394 -1.234145 -0.6287828 -1.196898 -1.106703 -2.770096 -4.180304 0.007788658 -0.5652036 -0.6966015 -1.76679 1.546559 -3.403194 1.575271 2.71447 1.442199 0.7284222 -0.5762794 1.487858 0.6382665 2.874133 4.799664 3.103667 1.437079 2.96955 4.138489 3.084532 4.64441 -0.8681656 10.84232 1 236
-2.716606 -3.180431 -1.294026 -2.954722 -1.556197 -0.4665934 -2.102757 -1.754107 -2.104401 -2.869197 -2.047321 -3.98569 -1.961026 -1.213547 -0.4985801 -1.368079 -0.9428888 -2.891402 -4.331894 -0.2020579 -0.4782228 -0.8966694 -1.720446 1.36645 -3.109215 0.9602047 2.757177 1.693659 0.6005766 -0.3836508 1.267526 0.5768709 2.750834 4.878885 3.051498 1.391303 2.880845 4.164781 3.024741 4.68662 -1.526579 12.50431 1 240
-3.115112 -3.284748 -1.107762 -3.085453 -1.391221 -0.01715239 -2.190953 -1.732814 -2.421432 -2.750351 -2.190586 -4.068008 -2.165117 -1.123074 -0.3607118 -1.418046 -0.8749521 -2.951609 -4.173035 -0.1929349 -0.3194977 -0.9444614 -1.583183 1.223533 -2.839099 0.6967536 2.883579 2.020938 0.520168 -0.1195284 1.025052 0.8020483 2.696975 5.108763 3.017424 1.582347 2.834172 4.358722 3.04988 4.849343 -1.784072 11.53514 1 244
-4.205491 -3.462021 -1.194717 -3.242924 -1.319826 -0.08315428 -2.310888 -1.903852 -2.583776 -2.70608 -2.450568 -3.235206 -2.41444 -0.9207433 -0.2959075 -1.362015 -0.8305805 -2.945207 -3.387959 -0.3311814 -0.04978854 -0.7422557 -1.260466 1.138228 -2.641978 0.7739237 3.22477 2.467352 0.6387638 0.2786827 0.9598294 1.424751 2.870942 5.546913 3.137127 2.061946 2.980601 4.728735 3.261845 5.206909 -1.577142 6.75694 1 248
-5.813564 -3.747416 -1.641095 -3.469517 -1.52257 -0.6862838 -2.522377 -2.245181 -2.78739 -2.622433 -2.765758 -2.363004 -2.662421 -0.6800712 -0.3778632 -1.304894 -0.7588915 -2.880381 -2.480433 -0.7604414 0.3043824 -0.3771786 -0.7971506 1.149622 -2.399011 1.01804 3.739252 3.009637 0.9476168 0.8429148 1.176598 2.252042 3.248824 6.119904 3.44563 2.735557 3.330981 5.245221 3.622116 5.692844 -1.201007 0.9851664 1 252
-6.990319 -3.974299 -2.008303 -3.657696 -1.863627 -1.182078 -2.730397 -2.453089 -3.092846 -2.543546 -3.106122 -2.04754 -2.948283 -0.5024157 -0.5212615 -1.297969 -0.678679 -2.796405 -1.831196 -1.220299 0.6258525 -0.0367654 -0.3697982 1.26999 -2.083953 1.281672 4.211635 3.503088 1.277534 1.376769 1.58456 3.016897 3.614853 6.591271 3.813958 3.350618 3.70806 5.769656 3.968837 6.135236 -1.095205 -4.068399 1 256
-6.900192 -3.976194 -1.928392 -3.663437 -2.043943 -0.9727051 -2.793028 -2.248924 -3.317208 -2.433314 -3.374924 -1.703814 -3.225607 -0.4788768 -0.6160836 -1.31898 -0.6344832 -2.771374 -1.375298 -1.474053 0.7410399 0.1068181 -0.1493144 1.366213 -1.954546 1.235288 4.390253 3.721841 1.430843 1.514199 1.892363 3.362025 3.796566 6.699198 4.036276 3.488622 3.907688 6.019008 4.158068 6.3224 -1.453243 -7.380811 1 260
-5.951976 -3.80936 -1.761842 -3.505512 -2.045515 -0.519758 -2.732843 -1.892195 -3.359212 -2.491241 -3.513074 -1.422426 -3.413096 -0.6645448 -0.7311803 -1.34842 -0.7387291 -2.793153 -1.443137 -1.453517 0.6038008 0.05513117 -0.1885076 1.40982 -2.200587 0.7855972 4.327428 3.620351 1.41798 1.198928 1.948663 3.047774 3.82899 6.4934 4.091146 3.082152 3.916055 5.88141 4.18961 6.2188 -2.013666 -6.123475 1 264
-4.724913 -3.574196 -1.930738 -3.252127 -2.020632 -0.4891467 -2.65045 -1.586969 -3.391764 -2.887384 -3.590225 -1.703909 -3.534176 -0.9833732 -0.9650666 -1.364528 -1.040771 -2.80934 -2.245285 -1.398622 0.3419139 -0.03646881 -0.4414595 1.470586 -2.749443 0.2657712 4.283074 3.380893 1.418027 0.7118862 1.874243 2.289824 3.795432 6.226128 4.096811 2.522779 3.839116 5.52196 4.135762 5.987541 -2.655524 -0.1351939 1 268
-3.53165 -3.447343 -2.305034 -3.086086 -2.073124 -0.8158569 -2.675033 -1.345695 -3.559115 -3.43894 -3.630705 -2.191614 -3.574614 -1.311669 -1.330865 -1.393904 -1.451724 -2.862625 -3.248072 -1.644895 0.106704 -0.08003378 -0.7275272 1.515603 -3.24332 -0.2139403 4.349383 3.198976 1.496652 0.38333 1.778103 1.522923 3.702036 6.015197 4.064611 2.163609 3.746967 5.13072 4.045831 5.726002 -3.371729 7.608468 1 272
-3.068575 -3.667738 -2.505457 -3.288787 -2.227257 -1.225476 -2.899668 -1.337817 -3.732603 -3.901583 -3.666592 -2.443685 -3.585181 -1.550812 -1.74209 -1.447344 -1.825115 -2.94211 -3.711048 -2.174555 0.01707357 -0.0716528 -0.7522825 1.491575 -3.083073 -0.7440205 4.500815 3.232077 1.61316 0.5044155 1.704704 1.183946 3.62092 5.944948 4.010347 2.178905 3.7075 4.904591 3.979174 5.496685 -3.798488 13.30222 1 276
-3.638339 -4.132887 -2.433739 -3.779387 -2.440869 -1.595479 -3.202186 -1.606644 -3.727712 -4.200133 -3.748166 -2.736874 -3.660838 -1.600762 -2.06378 -1.420409 -2.079315 -2.90749 -3.596527 -2.532306 0.1104956 0.03556794 -0.5248709 1.482818 -2.258096 -1.052056 4.720367 3.463513 1.753862 1.029174 1.711211 1.387007 3.611159 6.076091 3.9896 2.515523 3.736037 4.924335 3.959501 5.362983 -3.586784 14.65649 1 280
-4.630239 -4.510744 -2.38607 -4.180511 -2.659363 -1.84106 -3.3856 -1.919394 -3.519436 -4.373745 -3.888454 -3.258235 -3.792051 -1.459747 -2.213279 -1.272937 -2.228193 -2.74176 -3.473882 -2.45854 0.2649478 0.2493119 -0.3793388 1.554098 -1.494869 -0.971588 4.941078 3.646504 1.871966 1.510508 1.737816 1.702239 3.57082 6.263596 3.926981 2.896754 3.727293 4.982945 3.908713 5.233215 -2.89976 13.94998 1 284
-5.598809 -4.642848 -2.462502 -4.298913 -2.749498 -1.937198 -3.363013 -1.938186 -3.195916 -4.273115 -4.026447 -3.34894 -3.900048 -1.224514 -2.113896 -1.058475 -2.229134 -2.561011 -3.387854 -2.240296 0.3512978 0.466369 -0.4303069 1.606493 -1.272152 -0.8358748 5.064802 3.650213 1.911465 1.632701 1.634249 1.812632 3.409957 6.315939 3.744719 3.156311 3.594749 4.874394 3.76143 5.020421 -2.302216 13.38308 1 288
-6.523644 -4.568921 -2.42179 -4.196692 -2.616625 -1.905265 -3.182801 -1.642579 -2.911828 -3.689824 -3.97604 -2.484496 -3.833091 -0.97005 -1.76109 -0.8046592 -1.991056 -2.400205 -2.893364 -2.024451 0.3976845 0.5942547 -0.5054688 1.586295 -1.464717 -0.874506 5.062441 3.591198 1.906777 1.480034 1.420464 1.861292 3.220777 6.212744 3.544942 3.259146 3.420113 4.640758 3.588883 4.768312 -2.090686 11.1778 1 292
-7.233761 -4.365923 -2.184202 -3.980312 -2.379295 -1.760548 -2.978297 -1.298748 -2.745546 -2.922155 -3.71928 -1.229054 -3.587727 -0.7623501 -1.31292 -0.5763716 -1.599072 -2.285504 -2.125917 -1.679209 0.4620451 0.6009285 -0.5393395 1.555686 -1.72553 -0.8919437 4.964931 3.549721 1.890078 1.237455 1.24283 1.880105 3.03672 6.021558 3.378842 3.099282 3.26634 4.397009 3.435826 4.469197 -2.136547 7.530966 1 296
-7.338481 -4.070647 -1.89719 -3.696893 -2.188016 -1.49916 -2.793064 -1.095825 -2.574816 -2.637542 -3.403002 -0.6374609 -3.27712 -0.6822769 -0.9731908 -0.4689457 -1.350439 -2.317217 -1.843217 -1.245659 0.4465827 0.4550482 -0.6842172 1.546637 -1.930667 -0.5889019 4.762784 3.405052 1.807858 0.9417126 1.139502 1.638342 2.783346 5.740493 3.172898 2.655199 3.066059 4.122946 3.252143 4.074205 -2.168575 6.3518 1 300
-6.621121 -3.739795 -1.743755 -3.386279 -2.03869 -1.071836 -2.592108 -1.149956 -2.341149 -2.961691 -3.052212 -1.134374 -2.898843 -0.7509871 -0.8478128 -0.4700014 -1.439275 -2.534554 -2.47126 -0.9242551 0.201388 0.1421655 -1.067514 1.509795 -2.233059 -0.09235521 4.419366 3.01553 1.597319 0.55986 1.065928 1.064937 2.558907 5.320091 2.971009 2.109793 2.856013 3.739571 3.060832 3.65577 -1.965725 9.68028 1 304
-5.662559 -3.471308 -1.843517 -3.115778 -1.895705 -0.6074561 -2.396965 -1.387714 -2.149138 -3.384502 -2.746241 -2.113405 -2.548373 -0.8675658 -0.8819029 -0.4688257 -1.730397 -2.808624 -3.494098 -0.7892841 -0.1990554 -0.2441279 -1.575237 1.440935 -2.605108 0.2764565 4.011123 2.486103 1.342953 0.1768422 1.056367 0.4781255 2.501922 4.88322 2.882102 1.742824 2.776959 3.370584 2.942277 3.399524 -1.58479 14.80331 1 308
-5.304316 -3.314473 -2.127428 -2.932951 -1.801459 -0.5040402 -2.226764 -1.56629 -2.003928 -3.520973 -2.575396 -2.599943 -2.348435 -0.87894 -0.9120376 -0.3980508 -1.921426 -2.927288 -3.922864 -0.6899537 -0.4903871 -0.5079398 -1.93728 1.438051 -2.774642 0.6330623 3.728688 2.101519 1.253123 -0.09795358 1.23612 0.321843 2.668189 4.679216 2.991704 1.659184 2.913843 3.252685 3.00176 3.423248 -1.161988 16.14498 1 312
-5.579298 -3.180008 -2.336559 -2.775926 -1.692436 -0.776839 -2.044888 -1.524618 -1.880547 -3.298693 -2.403701 -2.147958 -2.196767 -0.7546408 -0.8267937 -0.2795911 -1.849311 -2.8405 -3.436921 -0.5103535 -0.5634232 -0.5651592 -2.030736 1.472233 -2.756296 1.016826 3.628332 1.96315 1.332575 -0.3382778 1.504428 0.5359967 2.984321 4.688031 3.249104 1.580118 3.172922 3.317744 3.229806 3.599861 -0.8682793 12.18305 1 316
-6.014039 -2.995512 -2.252188 -2.596484 -1.461796 -0.9569261 -1.860053 -1.335599 -1.833226 -2.945416 -2.152199 -1.125718 -2.003765 -0.6048263 -0.7023655 -0.1790885 -1.642484 -2.701951 -2.667416 -0.3406894 -0.5366423 -0.5344222 -1.946675 1.403925 -2.88818 1.165512 3.609292 1.942835 1.3938 -0.6092253 1.596732 0.6933156 3.242904 4.686626 3.457922 1.30564 3.364051 3.322123 3.443558 3.768931 -0.8332129 7.322881 1 320
-6.413393 -2.936337 -1.986952 -2.573771 -1.31862 -0.9643133 -1.815887 -1.291295 -1.783177 -2.874396 -1.946833 -0.4680201 -1.840275 -0.5557314 -0.7382134 -0.180602 -1.575295 -2.676402 -2.367898 -0.3943235 -0.5268608 -0.5461352 -1.824308 1.243265 -3.253689 1.272163 3.643174 1.959087 1.397776 -0.7654424 1.601057 0.739816 3.457565 4.675537 3.63903 1.170525 3.533019 3.288886 3.62861 4.016059 -0.7930372 5.1456 1 324
-6.777014 -3.155833 -1.773519 -2.842269 -1.49609 -0.9977121 -2.041542 -1.47604 -1.526645 -3.130104 -1.847464 -0.7349589 -1.758869 -0.7007023 -1.031913 -0.3218934 -1.780959 -2.83891 -2.673731 -0.6020313 -0.6220297 -0.6764053 -1.779586 1.091949 -3.510894 1.681502 3.675046 2.005371 1.366976 -0.6543497 1.663509 0.8626494 3.696001 4.774359 3.855042 1.472765 3.759626 3.342854 3.84774 4.39681 -0.5359011 5.795203 1 328
-6.913411 -3.441643 -1.590268 -3.165043 -1.779525 -0.8972301 -2.385941 -1.501736 -1.053402 -3.247775 -1.832079 -1.222419 -1.762207 -1.048655 -1.441907 -0.5695543 -2.074159 -3.137618 -2.943014 -0.6268679 -0.8676868 -0.9888545 -1.75946 0.9458545 -3.328233 2.112689 3.534677 2.063034 1.233128 -0.3381642 1.60077 1.060634 3.814764 4.879541 3.946271 1.910024 3.890502 3.412381 3.978154 4.692438 -0.4224619 7.26443 1 332
-7.029619 -3.502855 -1.410615 -3.245178 -1.86788 -0.5481315 -2.558933 -1.138582 -0.5382237 -2.910032 -1.82862 -1.169778 -1.772951 -1.50498 -1.757563 -0.9233388 -2.177896 -3.446858 -2.666715 -0.3724409 -1.166785 -1.455012 -1.61268 0.7895086 -2.762071 2.323178 3.161132 2.116357 0.9881648 -0.003100309 1.385981 1.251186 3.829017 4.825905 3.902699 2.090381 3.874493 3.400665 3.98587 4.6996 -0.7236709 7.470329 1 336
-7.517029 -3.328375 -1.358352 -3.081986 -1.782743 -0.1958608 -2.504561 -0.6491725 -0.08309644 -2.470699 -1.74467 -1.061454 -1.688027 -1.966995 -1.923067 -1.383141 -2.118711 -3.696788 -2.261728 0.02212477 -1.447528 -1.939367 -1.439008 0.7193952 -2.127719 2.712337 2.667219 2.114963 0.7066147 0.2421496 1.270357 1.398762 3.881806 4.655 3.877698 2.081912 3.834041 3.34627 3.990942 4.507846 -1.175346 6.91593 1 340
-7.959734 -3.087843 -1.507263 -2.844322 -1.668384 -0.03379074 -2.36656 -0.2369637 0.2197803 -2.382095 -1.744379 -1.425992 -1.665363 -2.369839 -1.971095 -1.850563 -2.110437 -3.898216 -2.252788 0.223462 -1.744054 -2.331024 -1.412449 0.7335928 -1.61003 3.293384 2.2068 2.004279 0.4600816 0.3960989 1.27216 1.475764 3.932131 4.502101 3.892892 2.163276 3.79667 3.321057 4.01116 4.385173 -1.659058 7.842354 1 344
-8.042466 -2.944695 -1.788668 -2.680341 -1.560511 0.003345349 -2.254687 0.0815139 0.3003706 -2.448829 -1.996407 -1.679768 -1.858372 -2.674091 -1.925822 -2.216924 -2.16807 -4.054005 -2.32987 0.04554852 -2.015246 -2.613562 -1.426951 0.7177901 -1.146663 3.418938 1.847775 1.845803 0.2728112 0.5370168 1.172155 1.541018 3.90601 4.423691 3.880041 2.417972 3.724417 3.348046 3.990933 4.443687 -2.256242 10.1633 1 348
-7.980403 -2.975541 -2.005574 -2.666252 -1.46059 0.01386143 -2.183357 0.2885401 0.2580094 -2.172702 -2.228619 -1.038069 -2.029444 -2.908837 -1.874294 -2.420606 -2.132871 -4.081659 -1.788449 -0.1127341 -2.170233 -2.808295 -1.284825 0.6806131 -0.6444502 3.007446 1.542556 1.778976 0.1349184 0.7792452 0.9560601 1.824836 3.856238 4.419176 3.831033 2.782933 3.669008 3.45692 3.960747 4.55791 -2.860542 10.02931 1 352
-7.943051 -3.156025 -2.079231 -2.798446 -1.452642 -0.05461898 -2.132035 0.3459577 0.2347489 -1.556832 -2.143212 0.2011522 -1.960122 -3.163231 -1.941698 -2.482161 -1.974986 -3.926555 -0.6359081 0.1648358 -2.234996 -2.936568 -0.9600534 0.7320217 -0.1460007 2.662168 1.251242 1.850883 0.07702404 1.195265 0.8410646 2.47476 3.87936 4.517503 3.83654 3.301185 3.724279 3.690774 4.018014 4.646843 -3.344392 5.377191 1 356
-8.122662 -3.354148 -2.186653 -2.96008 -1.594291 -0.3000874 -2.120687 0.2597272 0.2578392 -1.116109 -1.892428 1.155803 -1.788655 -3.47809 -2.116603 -2.528689 -1.840361 -3.663779 0.4472477 0.694309 -2.298434 -3.000131 -0.5728258 0.920204 0.2567441 2.761969 1.038771 1.969657 0.1288037 1.775074 0.9401767 3.326913 4.023842 4.714914 3.970109 4.030025 3.900044 3.985241 4.197784 4.751621 -3.676938 -0.8951917 1 360
-8.310731 -3.393424 -2.464743 -2.971703 -1.793183 -0.7208009 -2.149964 0.2060188 0.2784746 -1.11195 -1.726497 1.540615 -1.683093 -3.814225 -2.271599 -2.636539 -1.82995 -3.409592 1.023113 1.012079 -2.426379 -3.006334 -0.2794746 1.144733 0.5248667 3.112164 0.9379658 1.998743 0.2342469 2.303237 1.095134 4.005572 4.201833 4.860986 4.147011 4.742237 4.0879 4.181876 4.380064 4.863097 -3.9584 -4.923401 1 364
-7.977352 -3.298766 -2.672243 -2.866736 -1.914948 -1.112962 -2.188869 0.3373946 0.2442949 -1.310169 -1.669452 1.487565 -1.654509 -4.111067 -2.335383 -2.765087 -1.884887 -3.223309 1.069287 0.9415591 -2.632607 -3.010735 -0.1637849 1.267354 0.6652523 3.198318 0.8700718 1.900296 0.3188402 2.501008 1.070071 4.229231 4.264385 4.818103 4.236616 5.103643 4.16955 4.21839 4.435749 4.955716 -4.368216 -5.141574 1 368
-7.330139 -3.225635 -2.471606 -2.820468 -1.915278 -1.187292 -2.239279 0.5386368 0.1510665 -1.538957 -1.666568 1.215361 -1.663239 -4.342781 -2.334014 -2.872151 -1.922104 -3.049995 0.8410771 0.6894054 -2.815379 -3.005787 -0.1768745 1.315633 0.6900367 2.897617 0.835436 1.809135 0.4177751 2.424585 0.8617892 4.15556 4.233769 4.680687 4.258178 5.143518 4.16145 4.203987 4.423014 5.044951 -4.84479 -3.57023 1 372
-7.212366 -3.210761 -2.041709 -2.855116 -1.866077 -1.00396 -2.318011 0.5007172 0.07999934 -1.838373 -1.602456 0.9537287 -1.574788 -4.509837 -2.326741 -2.982069 -1.959405 -2.834985 0.6755873 0.6236094 -2.860656 -2.931934 -0.1989534 1.425171 0.6793034 2.713304 0.9007614 1.858735 0.5925589 2.378091 0.6626327 4.146522 4.232321 4.621923 4.281015 5.15189 4.152547 4.240836 4.423385 5.080211 -4.981367 -3.265232 1 376
-7.746318 -3.294867 -1.824216 -2.986212 -1.928089 -0.93356 -2.495591 0.01009248 0.1356249 -2.200629 -1.35262 0.4367677 -1.268128 -4.621643 -2.351385 -3.147695 -2.077874 -2.665575 0.5025577 0.7947512 -2.812624 -2.847795 -0.18275 1.578753 0.8504267 2.951064 1.028911 1.959417 0.7778544 2.51134 0.5838417 4.242281 4.309586 4.626421 4.318008 5.26315 4.192558 4.2698 4.426026 4.981611 -4.462721 -3.550566 1 380
-8.207632 -3.467174 -1.774996 -3.210901 -2.146535 -1.036835 -2.782799 -0.6254672 0.3665719 -2.475171 -0.9676701 -0.3971445 -0.8398637 -4.702174 -2.396255 -3.348837 -2.273772 -2.624037 0.211334 0.8675106 -2.814402 -2.824465 -0.1757554 1.628534 1.247304 3.354478 1.11572 1.913368 0.8810353 2.663575 0.5765603 4.257499 4.437869 4.54105 4.384526 5.352747 4.273654 4.169121 4.425574 4.743503 -3.628015 -2.69159 1 384
-8.215396 -3.549928 -1.539665 -3.357168 -2.327568 -0.9881906 -3.008629 -0.8160667 0.6554051 -2.467664 -0.6362103 -0.8143559 -0.5024257 -4.730275 -2.378154 -3.479713 -2.411364 -2.662521 0.09308308 0.8135097 -2.889451 -2.81137 -0.1905455 1.564338 1.550391 3.601283 1.106034 1.723973 0.8895903 2.615663 0.5443135 4.124774 4.480232 4.341127 4.432975 5.244787 4.295925 3.929029 4.374363 4.408745 -3.199925 -1.81295 1 388
-8.050823 -3.471124 -1.190324 -3.329342 -2.375839 -0.6544971 -3.054018 -0.5436997 0.8607929 -2.296487 -0.5307708 -0.5711911 -0.4268262 -4.650794 -2.280866 -3.492189 -2.437833 -2.697577 0.2415653 0.9500831 -2.917226 -2.739256 -0.1794603 1.499192 1.562753 3.618023 1.071614 1.582726 0.8365412 2.465661 0.4353963 3.980234 4.33399 4.182051 4.356481 5.064471 4.169216 3.722654 4.218952 4.077873 -3.239701 -2.100426 1 392
-8.090775 -3.298894 -1.10048 -3.167982 -2.393606 -0.1905761 -2.936797 -0.225836 0.9922619 -2.25512 -0.6763014 -0.1451709 -0.6294623 -4.446228 -2.184218 -3.442536 -2.4025 -2.707602 0.4052135 1.233682 -2.80601 -2.585631 -0.1494789 1.452777 1.381532 3.519815 1.088284 1.555715 0.7572603 2.432145 0.2762378 3.976165 4.081324 4.136312 4.137751 5.083899 3.935793 3.709648 4.01603 3.85648 -3.249432 -2.94371 1 396
-8.364716 -3.068505 -1.355334 -2.905073 -2.361512 0.1702693 -2.687784 -0.07976159 0.9884501 -2.372159 -0.8898211 0.1136864 -0.8747713 -4.132586 -2.054096 -3.343687 -2.319177 -2.69493 0.3787469 1.387887 -2.591244 -2.373724 -0.1842469 1.391675 1.064024 3.463022 1.101135 1.538851 0.6626535 2.457955 0.1533213 4.018831 3.857281 4.083467 3.88681 5.23526 3.709495 3.779118 3.870693 3.71479 -3.081532 -3.292675 1 400
-8.584352 -2.832656 -1.783012 -2.611637 -2.217026 0.255968 -2.383778 -0.08246162 0.7605215 -2.475106 -1.042888 0.2012817 -0.9922417 -3.724797 -1.821253 -3.141311 -2.208662 -2.613805 0.2708909 1.323686 -2.389337 -2.137705 -0.2708048 1.337927 0.7858961 3.457279 1.078928 1.486861 0.5847996 2.431428 0.09634829 3.983596 3.725015 3.938728 3.727585 5.287239 3.574356 3.729252 3.826821 3.564478 -2.873402 -3.242583 1 404
-8.464057 -2.692296 -2.253207 -2.398964 -2.027346 0.2292591 -2.145271 -0.05137903 0.367512 -2.346962 -1.326906 0.3337319 -1.21238 -3.251946 -1.512198 -2.843487 -2.088142 -2.483614 0.3720395 0.880633 -2.250363 -1.872524 -0.2825607 1.273688 0.8300642 3.267691 1.087833 1.428972 0.5934346 2.38371 0.04678509 3.928473 3.671409 3.78729 3.66231 5.237748 3.537453 3.553802 3.85132 3.438668 -2.784105 -3.476059 1 408
-8.146947 -2.701032 -2.698257 -2.335338 -1.865411 0.2173152 -2.055153 0.01086504 -0.04729936 -2.029056 -1.833272 0.4363902 -1.690537 -2.839201 -1.205461 -2.533831 -1.981143 -2.406928 0.5932219 0.2134731 -2.126147 -1.598029 -0.2336573 1.202916 1.086145 2.930242 1.164732 1.38837 0.7113287 2.308674 0.04865802 3.922933 3.761734 3.725931 3.726644 5.200541 3.659704 3.403455 3.975101 3.447283 -2.779629 -4.029271 1 412
-8.181946 -2.832918 -2.991924 -2.42921 -1.746266 0.06057027 -2.091156 -0.2494005 -0.290912 -1.976862 -2.178236 0.2581036 -2.059919 -2.610056 -1.030787 -2.293513 -1.961514 -2.383495 0.562914 0.1412247 -2.011864 -1.421456 -0.3219925 1.255276 1.083387 2.846617 1.257981 1.371869 0.8911982 2.165658 0.2114834 3.956447 4.132288 3.74121 4.045775 5.152698 4.027857 3.390183 4.305521 3.588593 -2.45016 -4.933223 1 416
-8.596188 -3.043622 -2.928256 -2.655548 -1.656887 -0.17977 -2.172803 -0.8972711 -0.3608814 -2.497949 -2.028524 -0.2106433 -1.950444 -2.519629 -1.017855 -2.139398 -2.084112 -2.336426 0.0756272 0.9699636 -1.96843 -1.391573 -0.6872581 1.490517 0.5540521 2.982918 1.300112 1.315124 1.108279 1.944263 0.4713765 3.911293 4.636971 3.766731 4.504592 4.988164 4.473993 3.454443 4.77407 3.77588 -1.736662 -5.438206 1 420
-8.924659 -3.304452 -2.46059 -2.97317 -1.564173 -0.3620154 -2.290154 -1.563502 -0.4990092 -3.336908 -1.607426 -0.8771166 -1.544057 -2.428477 -1.047424 -2.026402 -2.298433 -2.230691 -0.6950836 2.061409 -1.94855 -1.343342 -1.258031 1.822815 -0.2402276 3.107708 1.335385 1.20422 1.399203 1.684715 0.7391606 3.79734 4.997803 3.819073 4.878374 4.783825 4.796676 3.541682 5.216838 4.055744 -1.121059 -5.296937 1 424
-9.162985 -3.586151 -2.005122 -3.308239 -1.482351 -0.6249812 -2.445359 -2.111838 -0.8215513 -4.005658 -1.385298 -1.673576 -1.292549 -2.205704 -1.04733 -1.916734 -2.458418 -2.063215 -1.325402 2.8081 -1.797689 -1.100953 -1.789416 2.134487 -0.7979206 3.359561 1.489601 1.195121 1.771541 1.510233 1.046091 3.851209 5.254998 4.020342 5.198143 4.742579 5.074426 3.749836 5.6297 4.510558 -0.6909964 -6.246966 1 428
-9.589042 -3.826293 -2.053716 -3.554013 -1.474448 -0.9980314 -2.589029 -2.661866 -1.303019 -4.249747 -1.586965 -2.451505 -1.425274 -1.816538 -0.9986703 -1.789195 -2.450742 -1.868379 -1.537141 2.845161 -1.484747 -0.7589101 -2.014247 2.272735 -0.7492378 3.673543 1.806308 1.401129 2.136543 1.543707 1.345283 4.1314 5.536422 4.376495 5.537419 4.8749 5.400074 4.089004 6.001038 5.013893 -0.2473761 -8.506952 1 432
-10.25538 -3.940982 -2.4439 -3.641943 -1.430744 -1.180089 -2.642196 -3.070692 -1.911384 -4.109086 -2.038809 -2.825071 -1.836492 -1.385901 -0.8769855 -1.603992 -2.277402 -1.722408 -1.30837 1.991765 -1.156208 -0.5366328 -1.879844 2.102831 -0.1401078 3.677624 2.126072 1.708246 2.343701 1.723751 1.493863 4.386025 5.763838 4.66974 5.804947 4.951507 5.69416 4.336608 6.224437 5.314172 -0.0479843 -10.05069 1 436
-10.92768 -3.928792 -2.65627 -3.612346 -1.217772 -1.045166 -2.54809 -3.121256 -2.498066 -3.805221 -2.372854 -2.671674 -2.203309 -1.055631 -0.757409 -1.337997 -2.050438 -1.641015 -0.9030594 0.6866117 -0.9483953 -0.4537109 -1.580084 1.723852 0.4706827 3.353273 2.269605 1.941763 2.366276 1.825092 1.474635 4.41302 5.887323 4.74952 5.956564 4.815459 5.886567 4.333835 6.322599 5.326219 -0.2972351 -10.16938 1 440
-11.31554 -3.873965 -2.638231 -3.54893 -1.015429 -0.9116809 -2.399122 -3.037557 -2.865983 -3.672452 -2.454057 -2.398934 -2.338223 -0.8160273 -0.7499387 -1.020562 -1.907344 -1.52238 -0.6905503 -0.3027589 -0.8413996 -0.3385944 -1.328517 1.454789 0.5607646 2.992236 2.328496 2.051152 2.393028 1.698075 1.440902 4.292641 6.052266 4.731999 6.121476 4.570482 6.060181 4.209832 6.472148 5.304977 -0.5126724 -10.23464 1 444
-11.36419 -3.818496 -2.637178 -3.481151 -0.9878216 -1.109191 -2.322522 -3.172365 -2.95101 -3.809393 -2.376354 -2.245054 -2.298975 -0.5999478 -0.7879844 -0.7186661 -1.865638 -1.301784 -0.7430769 -0.5724352 -0.7605334 -0.1156248 -1.227201 1.47723 0.1003966 2.838809 2.421508 2.039222 2.539255 1.291839 1.517022 4.119614 6.356398 4.729918 6.39959 4.255326 6.315611 4.11167 6.752913 5.493936 -0.2367892 -11.25681 1 448
-11.21121 -3.732424 -2.68633 -3.382872 -1.006246 -1.633379 -2.257475 -3.413344 -2.887849 -3.881627 -2.191132 -2.071698 -2.125569 -0.4588022 -0.7243184 -0.4922331 -1.798417 -1.056634 -0.8577532 -0.3109141 -0.6963533 0.08858819 -1.24393 1.64388 -0.6084068 3.014837 2.457892 1.973673 2.674067 0.7301735 1.659329 3.886418 6.616253 4.72962 6.655332 3.817863 6.54474 4.061084 7.003994 5.774492 0.1660478 -12.76937 1 452
-10.98834 -3.556488 -2.781451 -3.190636 -0.9044293 -2.029376 -2.060328 -3.465853 -2.877104 -3.712624 -2.080433 -1.933247 -1.996315 -0.4821192 -0.5871975 -0.35435 -1.663493 -0.9430075 -1.015455 -0.2197101 -0.6741514 0.1074916 -1.302771 1.641582 -1.210258 3.376899 2.354386 1.987107 2.603392 0.3392945 1.728774 3.614447 6.610522 4.722645 6.684121 3.424596 6.550856 4.055048 7.028946 5.92647 0.1084875 -12.83593 1 456
-10.55715 -3.254076 -3.058755 -2.856226 -0.6578947 -1.688617 -1.715128 -3.442973 -2.92676 -3.63089 -2.253357 -2.124829 -2.152852 -0.6714175 -0.5419055 -0.2976158 -1.656319 -1.07083 -1.436344 -0.6602657 -0.7554505 -0.1229966 -1.421054 1.316659 -1.479235 3.627837 2.112658 2.054452 2.240248 0.2417635 1.620971 3.274025 6.364548 4.661129 6.443132 3.229315 6.303492 4.012776 6.799984 5.853076 -0.2574106 -9.465705 1 460
-9.859504 -2.912099 -3.475556 -2.468518 -0.3709984 -0.7271057 -1.346195 -3.591317 -2.977373 -3.802414 -2.503619 -2.619601 -2.397836 -0.9030306 -0.6229725 -0.2738208 -1.859653 -1.313031 -2.011115 -1.030562 -0.9192004 -0.4538978 -1.591655 0.8623075 -1.428528 3.540163 1.823072 2.0917 1.731102 0.291299 1.328815 2.941554 6.036734 4.557687 6.053441 3.221394 5.927988 3.901311 6.433388 5.652424 -0.4244365 -4.510384 1 464
-9.361048 -2.756233 -3.63282 -2.293039 -0.1812163 0.05633806 -1.153357 -3.91296 -3.048299 -3.964853 -2.456381 -3.190279 -2.353188 -0.9868231 -0.7158378 -0.185018 -2.072752 -1.418206 -2.399146 -0.7207752 -0.991583 -0.6267958 -1.682422 0.5704526 -1.268299 3.061875 1.666315 2.17499 1.342749 0.4066988 0.9596407 2.847376 5.787168 4.55373 5.739731 3.381194 5.608424 3.839297 6.110205 5.591866 -0.1980155 -2.128658 1 468
-9.492217 -2.890939 -3.35902 -2.46462 -0.1109034 0.2646042 -1.211149 -4.43782 -3.070231 -4.131883 -2.029165 -3.818953 -1.959305 -0.88476 -0.769989 -0.0003665577 -2.214892 -1.344167 -2.718934 0.1141033 -0.9254603 -0.632619 -1.719221 0.5130894 -1.320016 2.523982 1.680128 2.329039 1.135627 0.5466537 0.6883883 2.962062 5.708085 4.650403 5.622875 3.634836 5.466674 3.892437 5.952196 5.728864 0.4895891 -2.397068 1 472
-10.18845 -3.124259 -2.976498 -2.752682 -0.03201688 0.1810766 -1.313013 -5.098046 -2.940927 -4.632188 -1.511527 -4.380933 -1.476959 -0.73207 -0.790893 0.2095732 -2.392513 -1.220046 -3.251949 1.142369 -0.871826 -0.6568684 -1.932723 0.6276091 -1.773587 2.38093 1.704525 2.448486 1.004346 0.6218193 0.5861736 3.026263 5.68015 4.710417 5.558368 3.851028 5.405656 4.017066 5.891124 5.799039 1.479684 -2.27572 1 476
-10.95537 -3.262861 -2.685573 -2.920474 0.1624335 -0.004911195 -1.294396 -5.523395 -2.667084 -5.312204 -1.332216 -4.439821 -1.271352 -0.5948598 -0.7190819 0.3722636 -2.533972 -1.122326 -3.564847 2.178142 -0.865929 -0.7267991 -2.193448 0.8617743 -2.190218 2.711452 1.630969 2.557776 0.9186661 0.7200871 0.5452405 3.058537 5.483718 4.731989 5.362689 3.979257 5.230133 4.156393 5.744191 5.637075 2.298327 -2.159841 1 480
-11.13645 -3.314257 -2.440305 -2.97677 0.4536267 -0.3621562 -1.218993 -5.423309 -2.414805 -5.545133 -1.638659 -3.75438 -1.52501 -0.3832216 -0.4691387 0.5113974 -2.38603 -1.044739 -2.900006 2.681239 -0.7611921 -0.74387 -1.995191 1.027203 -1.747845 3.064147 1.487987 2.788684 0.8633869 1.063004 0.4092055 3.324368 5.080028 4.794335 5.024633 4.113859 4.890729 4.230063 5.426905 5.341132 2.575789 -4.970212 1 484
-10.46197 -3.313184 -2.279455 -2.960481 0.7810072 -0.6178055 -1.116309 -4.794363 -2.448566 -5.10428 -2.190824 -2.72343 -2.063343 -0.1081849 -0.1042514 0.665657 -1.907111 -1.038272 -1.535288 2.120392 -0.5386878 -0.751743 -1.264187 0.8144296 -0.4111401 2.700549 1.287548 3.08829 0.6696512 1.581261 0.0260647 3.684826 4.542707 4.848063 4.570911 4.297415 4.422606 4.127777 4.947198 4.96578 2.11581 -8.525076 1 488
-9.480824 -3.234113 -2.334579 -2.840288 1.075193 -0.5086382 -0.9417914 -3.938444 -2.810688 -4.38673 -2.642113 -1.986771 -2.545052 0.04164206 0.1759822 0.7751492 -1.333776 -1.194366 -0.4657504 0.8938808 -0.3299075 -0.8851534 -0.397254 0.2050893 1.019195 1.492834 1.034399 3.312305 0.2403123 2.034969 -0.6180079 3.78751 3.979074 4.834105 4.057451 4.462336 3.902579 3.898653 4.398443 4.53166 1.042473 -8.320908 1 492
-9.110576 -3.059434 -2.502096 -2.619552 1.281814 -0.2376558 -0.7152 -3.142411 -3.222029 -3.77916 -2.944996 -1.572989 -2.896466 0.05364951 0.3207802 0.8124729 -0.8251598 -1.425087 0.1199478 -0.3156853 -0.1261466 -1.055731 0.3480673 -0.446162 1.98581 0.2317774 0.8597453 3.486241 -0.1756842 2.390512 -1.245056 3.765543 3.577834 4.803751 3.664361 4.598683 3.500206 3.762186 3.997441 4.194021 -0.1192028 -6.218411 1 496
-9.421522 -2.889287 -2.40078 -2.439386 1.435417 -0.01092097 -0.5292583 -2.483293 -3.459003 -3.291577 -3.229969 -1.010242 -3.188305 0.1196597 0.4254937 0.8339565 -0.3705675 -1.530397 0.6656255 -1.408892 0.13777 -1.053926 0.8734642 -0.8718733 2.40541 -0.4216647 0.8741403 3.653505 -0.3014 2.647936 -1.583265 3.874129 3.437416 4.757657 3.514139 4.682042 3.338073 3.761709 3.860042 4.026912 -0.8954872 -6.533432 1 500
-9.672022 -2.886345 -2.004151 -2.464727 1.578382 0.05231874 -0.4843573 -2.269168 -3.543909 -2.751002 -3.271719 -0.258564 -3.193233 0.3119785 0.5157304 0.8650171 0.01478468 -1.437101 1.367736 -2.075024 0.3880642 -0.8774357 1.136734 -1.02848 2.467428 -0.4149832 0.994116 3.771268 -0.1686116 2.781764 -1.581726 4.146369 3.532761 4.676877 3.583431 4.694371 3.418922 3.76219 3.923961 3.956141 -0.9626418 -10.59508 1 504
-9.542025 -3.013107 -1.721903 -2.619748 1.646082 -0.02104709 -0.5756457 -2.615311 -3.587584 -2.147458 -2.993294 0.1433984 -2.895283 0.5712287 0.5787136 0.8945423 0.2717726 -1.209801 1.961937 -1.883334 0.5602999 -0.6188853 1.151083 -0.9175102 2.35314 0.09533182 1.1086 3.825294 0.06616484 2.786657 -1.265795 4.465663 3.793915 4.638603 3.801796 4.648489 3.668295 3.699785 4.109854 3.939251 -0.3826369 -16.76949 1 508
-9.461177 -3.105183 -1.806337 -2.72036 1.549479 0.07876828 -0.7361155 -3.06115 -3.710423 -1.764051 -2.884985 -0.3646919 -2.79717 0.829757 0.6183748 0.8758512 0.365051 -0.9720485 1.674338 -1.4356 0.6753502 -0.3340246 0.8459349 -0.6508181 1.817969 0.6996015 1.229368 3.796823 0.3222888 2.537032 -0.7772748 4.408889 4.094532 4.644345 4.078968 4.465868 3.9758 3.546129 4.341228 3.973234 0.2446886 -19.10825 1 512
-9.767296 -3.14352 -2.152491 -2.763709 1.291749 0.3358065 -0.9486811 -3.318842 -3.872174 -1.832891 -3.055427 -1.616781 -2.991459 0.9724575 0.58862 0.7222355 0.2854986 -0.8432169 0.2748519 -1.381027 0.7225319 -0.1323061 0.2363372 -0.3976431 0.757872 0.9848206 1.332735 3.660244 0.5147213 2.084857 -0.3425202 3.806229 4.329095 4.574122 4.313761 4.176761 4.234308 3.332109 4.517862 3.985051 0.5550384 -14.02959 1 516
-10.11692 -3.190579 -2.477691 -2.822493 0.9632866 0.3389721 -1.159697 -3.47657 -3.842702 -2.248738 -3.04439 -2.738823 -3.013807 0.939226 0.4525186 0.465488 0.0997073 -0.8139145 -1.22205 -1.239669 0.6942194 -0.05356923 -0.3715186 -0.146624 -0.282527 1.07794 1.36547 3.496403 0.5893703 1.769989 -0.02868631 3.165849 4.417315 4.42304 4.379465 3.958387 4.317774 3.181197 4.563887 3.896202 0.7746028 -7.039368 1 520
-10.08638 -3.233998 -2.592057 -2.881942 0.6484303 0.04031374 -1.283211 -3.678667 -3.583472 -2.826205 -2.578621 -3.311619 -2.582821 0.8303471 0.2391376 0.2781654 -0.1349556 -0.7456738 -2.097601 -0.5128151 0.6248133 -0.03461398 -0.7629352 0.1760266 -0.9148226 1.193809 1.368484 3.359332 0.6053004 1.581245 0.1980418 2.715343 4.293637 4.269947 4.202842 3.6965 4.16822 3.030881 4.452836 3.710167 1.180068 -3.021457 1 524
-9.630451 -3.261043 -2.530652 -2.933163 0.3789283 -0.2094413 -1.333704 -3.962796 -3.344216 -3.350063 -1.871951 -3.443385 -1.889275 0.7389693 -0.02356555 0.2038044 -0.3878269 -0.5871248 -2.458603 0.3158179 0.5358691 -0.05545488 -0.9846149 0.4686293 -1.193884 1.247708 1.344222 3.201445 0.6048883 1.263434 0.3764636 2.2641 4.103623 4.122241 3.974262 3.196894 3.984378 2.762268 4.289939 3.496078 1.648995 -1.071717 1 528
-8.964243 -3.363669 -2.436262 -3.059987 0.1743746 -0.224077 -1.370626 -4.221963 -3.324433 -3.548984 -1.471323 -3.289723 -1.475372 0.6825845 -0.2615729 0.1251202 -0.5055754 -0.4342964 -2.32898 0.6143402 0.4699251 -0.07981762 -0.9816637 0.6265356 -1.034474 1.17325 1.283689 3.11554 0.6007499 1.051144 0.5410463 2.04406 4.100228 4.023475 3.971571 2.797382 4.013612 2.557739 4.252697 3.352914 1.88563 -1.080485 1 532
-8.576523 -3.606122 -2.414253 -3.308789 0.009791699 -0.1712745 -1.415738 -4.325185 -3.480231 -3.442596 -1.617916 -3.070926 -1.601972 0.6744698 -0.3960673 -0.003843654 -0.3902016 -0.370439 -1.791523 0.4759197 0.50637 -0.07332847 -0.6694033 0.6881346 -0.3841664 0.8904631 1.267543 3.251209 0.6295623 1.292563 0.6254406 2.297202 4.245934 4.04653 4.14916 2.896904 4.178878 2.589192 4.324891 3.293809 1.814523 -3.038082 1 536
-8.702054 -3.929046 -2.462723 -3.623598 -0.1822504 -0.2829393 -1.498059 -4.291504 -3.643314 -3.267447 -2.038165 -2.977901 -2.007214 0.731374 -0.4580454 -0.1288637 -0.1494256 -0.3903887 -1.247902 0.173623 0.7100608 -0.05677841 -0.1590887 0.6849976 0.4038688 0.3749826 1.355084 3.558059 0.7035274 1.828663 0.6052796 2.74616 4.316143 4.191411 4.252654 3.345757 4.24623 2.772166 4.354483 3.298033 1.631158 -4.78706 1 540
-8.920673 -4.225214 -2.434022 -3.927817 -0.3863081 -0.5465512 -1.592884 -4.174153 -3.746216 -3.146977 -2.419669 -3.213886 -2.388668 0.8591313 -0.5099621 -0.2078866 0.05931347 -0.3992552 -1.124156 -0.2375288 1.024328 0.007816813 0.319618 0.6517376 0.8142275 -0.08840743 1.50219 3.849877 0.8219729 2.222255 0.5703513 2.995824 4.235727 4.364959 4.211563 3.737237 4.169492 2.946518 4.310254 3.383084 1.465374 -4.832603 1 544
-8.902701 -4.38999 -2.329793 -4.126299 -0.5963497 -0.89405 -1.618295 -3.888782 -3.844697 -3.105174 -2.570314 -3.536992 -2.572717 1.052921 -0.5876987 -0.2624583 0.1815955 -0.2821803 -1.316716 -0.6992069 1.301702 0.1798453 0.5711489 0.6734796 0.7117422 -0.2333614 1.643445 4.019133 1.000667 2.267725 0.6018096 2.979243 4.134639 4.449305 4.180512 3.83539 4.104165 3.007493 4.300799 3.534972 1.237567 -4.211565 1 548
-8.877821 -4.430803 -2.392435 -4.197786 -0.8927889 -1.370351 -1.623746 -3.557627 -3.891756 -3.162524 -2.431098 -3.467747 -2.502504 1.256098 -0.6600914 -0.3714438 0.2889359 -0.08511513 -1.372417 -1.198218 1.470797 0.3647135 0.6108876 0.7625899 0.4833041 -0.1137668 1.735698 4.119828 1.196891 2.152199 0.7158992 2.872901 4.167629 4.428586 4.258842 3.664615 4.16215 2.950712 4.390646 3.675939 1.090458 -4.220166 1 552
-9.108466 -4.455181 -2.576347 -4.234366 -1.1718 -1.7926 -1.699872 -3.298506 -3.86457 -3.08745 -2.187762 -2.913446 -2.322619 1.363002 -0.5957696 -0.5694417 0.4597102 0.05538971 -1.13608 -1.700274 1.542466 0.4105849 0.6043124 0.8591526 0.3805282 0.03343903 1.712669 4.242004 1.309555 2.051326 0.8268783 2.750681 4.265852 4.362116 4.347407 3.355207 4.255783 2.843644 4.494622 3.691448 0.9829725 -4.486213 1 556
-9.4366 -4.44728 -2.616403 -4.223572 -1.230796 -1.777809 -1.770031 -2.948513 -3.912106 -2.579093 -2.011543 -2.014438 -2.161816 1.322826 -0.3767313 -0.8074114 0.6600327 0.1151643 -0.71048 -1.859104 1.514813 0.3451068 0.5764244 0.9565936 0.2029179 0.08288483 1.574116 4.351391 1.33771 1.913909 0.8536766 2.640408 4.24863 4.298916 4.32895 3.053513 4.263362 2.783201 4.503534 3.582044 0.5242416 -5.150565 1 560
-9.687348 -4.348778 -2.577183 -4.108604 -1.177058 -1.466596 -1.75425 -2.763812 -3.940095 -2.046375 -1.763826 -1.314967 -1.874683 1.123725 -0.2153924 -1.046657 0.7197338 0.1319174 -0.4162003 -1.141279 1.342228 0.2820201 0.4132959 1.137541 -0.1570837 0.2156233 1.392462 4.306527 1.40086 1.718982 0.8391226 2.600581 4.181781 4.259531 4.280191 2.882175 4.23233 2.786116 4.45298 3.498573 0.09456682 -6.49274 1 564
-10.0775 -4.238993 -2.684314 -3.971931 -1.247958 -1.567391 -1.705095 -3.001326 -3.699593 -2.048139 -1.396684 -1.018521 -1.44801 0.8240748 -0.2190709 -1.222773 0.6069269 0.1556552 -0.2096034 0.2579114 1.094544 0.2905627 0.2476149 1.437216 -0.3474664 0.7031202 1.246707 4.150738 1.575107 1.627543 0.9155986 2.748693 4.235718 4.311538 4.336851 2.922012 4.279677 2.816515 4.460909 3.555451 0.2597574 -8.956107 1 568
-10.54481 -4.167933 -2.828486 -3.874243 -1.39936 -2.108763 -1.654747 -3.12408 -3.282774 -2.282089 -1.156599 -0.6009164 -1.187217 0.5403163 -0.2523896 -1.286847 0.5646049 0.1706011 0.3510967 1.267478 0.8963615 0.3427189 0.3414157 1.631496 -0.04426332 1.362618 1.132436 4.076507 1.724181 1.810675 1.072544 3.169817 4.272534 4.478565 4.370993 3.231461 4.303121 2.903844 4.45322 3.657015 0.4985861 -12.82863 1 572
-10.4538 -4.06819 -2.751377 -3.758826 -1.435154 -2.180691 -1.560424 -2.76991 -2.9567 -2.231707 -1.116107 -0.1530446 -1.153075 0.2467902 -0.2444123 -1.35893 0.6848781 0.03121411 0.8979182 1.375603 0.6786694 0.2491285 0.5502913 1.459399 0.3987743 1.649743 0.8912805 4.034235 1.615527 2.088183 1.086685 3.526692 4.097062 4.572116 4.195068 3.609792 4.121716 3.016532 4.276702 3.600662 0.1588008 -14.92109 1 576
-9.470671 -3.840644 -2.47303 -3.527874 -1.320791 -1.442917 -1.389765 -2.368311 -2.755266 -1.934146 -1.02312 -0.1978645 -1.029139 -0.1178854 -0.2550774 -1.523116 0.7852259 -0.2830823 0.7851902 1.203369 0.3857617 -0.07336549 0.5543331 1.077309 0.4221326 1.597969 0.4800188 3.852459 1.272351 2.021229 0.8766546 3.363784 3.782255 4.419354 3.87672 3.578729 3.785007 3.016212 3.970935 3.326111 -0.4476537 -12.95944 1 580
-8.082691 -3.477464 -2.187168 -3.171682 -1.146585 -0.4175852 -1.178533 -2.439319 -2.482651 -1.69559 -0.6537178 -0.8523924 -0.5973158 -0.4625552 -0.3092496 -1.668869 0.7299271 -0.5731634 0.1273464 1.463315 0.1090964 -0.4429239 0.3436513 0.8409122 0.1033124 1.733951 0.05859271 3.529816 0.921183 1.566206 0.5763531 2.769834 3.432483 4.08969 3.503319 3.084699 3.399774 2.813589 3.583521 2.876563 -0.5001543 -9.317513 1 584
-6.86848 -3.116545 -2.065654 -2.817999 -1.016891 0.5424646 -0.9988466 -2.901242 -2.132194 -1.660179 -0.1931927 -1.818451 -0.09992302 -0.6571746 -0.3494434 -1.701971 0.5519871 -0.6874189 -0.6179454 2.184055 -0.09722697 -0.6780683 0.08906499 0.8441693 -0.1691768 2.045971 -0.2552453 3.202474 0.6640221 1.162599 0.3077812 2.211444 3.103163 3.748776 3.124357 2.651983 3.022576 2.450707 3.150002 2.327448 0.1225538 -6.604422 1 588
-5.874004 -2.928092 -2.115983 -2.628452 -1.049214 1.237692 -0.9114985 -3.178047 -1.91682 -1.666934 -0.009191036 -2.312212 0.08031061 -0.675199 -0.2699472 -1.64999 0.426478 -0.6536707 -0.988456 2.73506 -0.1992773 -0.7617926 -0.07822908 0.9606737 -0.2910082 2.137873 -0.4394941 3.027089 0.4747256 1.055041 0.1480758 1.951862 2.876251 3.475292 2.879971 2.551166 2.769294 2.087077 2.825697 1.827063 0.6474804 -5.576545 1 592
-5.245379 -3.009428 -2.077836 -2.718714 -1.215745 1.391478 -0.9596544 -2.971896 -1.790235 -1.437679 -0.1092706 -1.979591 -0.04511543 -0.567514 -0.04077036 -1.570256 0.5380083 -0.5735535 -0.8297741 2.454931 -0.1615524 -0.751433 -0.1096051 1.050742 -0.3139007 2.03631 -0.5371825 3.031026 0.3392461 1.076837 0.1270756 1.899483 2.792368 3.277813 2.823392 2.553619 2.710525 1.863563 2.699702 1.481057 0.7051092 -5.836255 1 596
-5.235672 -3.256677 -1.804358 -2.996299 -1.35396 0.9937029 -1.081711 -2.426424 -1.553177 -0.8672919 -0.1958448 -1.285915 -0.1703911 -0.3760333 0.2432977 -1.483344 0.8842325 -0.4960651 -0.3658897 1.635412 -0.01986759 -0.6813163 -0.05902685 1.085074 -0.2835943 2.041603 -0.613372 3.100617 0.254092 1.073614 0.1812231 1.914275 2.806881 3.163768 2.857485 2.450621 2.756876 1.739507 2.708988 1.294258 0.5900953 -7.169263 1 600
-5.531 -3.496219 -1.515591 -3.255477 -1.436663 0.2796078 -1.193453 -1.830393 -1.234026 -0.07655204 -0.1603152 -0.5374995 -0.1564858 -0.1682844 0.483469 -1.416317 1.324803 -0.4374656 0.2525344 1.150246 0.1860403 -0.5682358 0.04877736 1.130441 -0.2405746 2.145079 -0.6392445 3.165191 0.2345587 1.1063 0.2036508 2.022492 2.810501 3.150246 2.860014 2.3605 2.764254 1.626879 2.740679 1.24178 0.4996099 -9.893819 1 604
-5.738192 -3.698112 -1.328752 -3.447891 -1.544905 -0.361379 -1.327849 -1.399456 -0.9322239 0.6730626 -0.150385 0.2540597 -0.1224302 -0.04572558 0.592663 -1.430569 1.729206 -0.462671 0.9335008 1.105013 0.4297745 -0.4573111 0.2952349 1.151022 -0.152042 2.035931 -0.5513247 3.24636 0.2905 1.240268 0.1203166 2.22033 2.715876 3.220527 2.738849 2.441745 2.658112 1.551865 2.691757 1.26053 0.4459585 -12.89125 1 608
-5.69621 -3.792783 -1.20832 -3.524122 -1.676151 -0.5988209 -1.43824 -1.062925 -0.7130319 1.105078 -0.1045932 0.8880445 -0.04115222 -0.06560592 0.5006761 -1.567532 1.961205 -0.6083014 1.395925 1.246948 0.5976387 -0.4559522 0.6183478 1.051414 -0.0240814 1.582939 -0.4472682 3.324913 0.3045793 1.394816 -0.1337259 2.325504 2.455538 3.257298 2.437731 2.600537 2.393041 1.520723 2.476125 1.223747 0.2916074 -13.79558 1 612
-5.199486 -3.68885 -1.279883 -3.405914 -1.805225 -0.5965193 -1.406105 -0.742865 -0.6434219 1.029164 0.1859392 0.9883059 0.2653562 -0.2414114 0.2502033 -1.820107 1.916987 -0.7920405 1.29211 1.727011 0.5771477 -0.6177351 0.7430451 0.8759105 0.006072218 1.085274 -0.4793728 3.326965 0.1733304 1.475762 -0.5345579 2.188521 2.044098 3.153993 2.026322 2.701215 1.99516 1.4752 2.126631 1.045905 -0.08933301 -11.3328 1 616
-4.557431 -3.51712 -1.49255 -3.239841 -2.016683 -0.6523682 -1.361175 -0.5990739 -0.6246097 0.4489527 0.6438398 0.6657781 0.7251066 -0.5358293 -0.07472567 -2.146833 1.640966 -0.909511 0.7504243 2.421123 0.4342403 -0.8301218 0.5877165 0.7034485 -0.09347101 0.8550619 -0.6089874 3.251601 0.01490283 1.484673 -0.8625535 1.913779 1.738077 2.990605 1.760134 2.712144 1.696339 1.420324 1.893142 0.8567137 -0.4700951 -7.016177 1 620
-4.442205 -3.485759 -1.582118 -3.243501 -2.315649 -0.7304432 -1.536193 -0.7535631 -0.5328355 -0.1019794 0.990796 0.6022762 1.049611 -0.8178596 -0.398576 -2.449544 1.345527 -0.915131 0.5370517 2.961984 0.3532575 -0.9260692 0.4584666 0.5895706 -0.08876836 0.8879452 -0.6911899 3.19737 0.009455279 1.512342 -0.8935021 1.833715 1.816868 2.944204 1.845346 2.676446 1.757743 1.406573 1.994438 0.8848591 -0.5336519 -5.217349 1 624
-4.902555 -3.59544 -1.447539 -3.397461 -2.510162 -0.7406086 -1.876531 -0.9474465 -0.4998897 0.05609808 1.032607 1.08894 1.03427 -0.9340466 -0.5927937 -2.607379 1.288296 -0.804682 1.176122 3.250327 0.4426048 -0.8188443 0.6520346 0.5776922 0.2610078 1.041958 -0.6454897 3.268104 0.1916274 1.671963 -0.6625014 2.157039 2.20354 3.077307 2.208078 2.678926 2.132486 1.417696 2.343072 1.125912 -0.4844446 -8.909898 1 628
-5.52644 -3.707079 -1.205726 -3.545765 -2.556262 -0.7018492 -2.177465 -0.7667065 -0.7119033 0.6238242 0.7113986 1.774252 0.652687 -0.8605816 -0.6040732 -2.64455 1.491938 -0.6574951 2.194674 3.109076 0.6655794 -0.5724441 1.092319 0.5879457 0.8008193 1.15387 -0.482879 3.492162 0.4397249 1.957612 -0.4155641 2.649226 2.584678 3.306 2.616487 2.744913 2.543759 1.425905 2.713351 1.399219 -0.8181173 -14.77654 1 632
-5.885181 -3.79933 -1.148411 -3.658639 -2.663373 -0.7046929 -2.408975 -0.4040134 -1.076054 0.6979236 0.1380732 1.973338 0.06600922 -0.7469967 -0.5669076 -2.713748 1.683189 -0.5892944 2.539731 2.354712 0.895549 -0.3508966 1.449299 0.5121495 1.108507 1.075549 -0.2796772 3.757516 0.616689 2.199843 -0.3078885 2.831504 2.826033 3.462371 2.911906 2.787852 2.830318 1.449105 2.999961 1.579025 -1.363141 -16.07888 1 636
-5.868402 -3.987555 -1.429967 -3.843463 -2.948733 -0.9742496 -2.653276 -0.3885178 -1.401697 0.1583515 -0.3862608 1.365695 -0.4253608 -0.7070841 -0.5869631 -2.854567 1.69804 -0.5955034 1.908048 1.223693 1.067664 -0.1803947 1.597222 0.3759833 1.128061 0.6112375 -0.04986598 3.929473 0.7433681 2.251483 -0.3115981 2.554266 3.010945 3.481998 3.091052 2.73036 3.005013 1.501072 3.2048 1.641275 -1.586331 -11.09925 1 640
-5.722189 -4.31055 -1.801375 -4.145089 -3.318909 -1.459066 -2.903967 -0.6339447 -1.74081 -0.3476383 -0.7569048 0.7147716 -0.7783881 -0.6636789 -0.6072211 -2.960907 1.695265 -0.5924723 1.257967 0.1778153 1.279325 0.08780313 1.77947 0.2896609 1.178904 -0.27861 0.2948929 4.086598 0.930898 2.208676 -0.3629548 2.250762 3.179824 3.557958 3.229131 2.683394 3.134504 1.645154 3.359471 1.741459 -1.628167 -5.750872 1 644
-5.524763 -4.619434 -1.943012 -4.443415 -3.669562 -1.659622 -3.086407 -0.7761276 -2.075338 -0.5216442 -1.139601 0.5881977 -1.176394 -0.5715371 -0.6371039 -3.01385 1.734013 -0.5852318 1.166875 -0.3720548 1.566388 0.4531474 2.031431 0.2999776 1.293475 -1.137165 0.7231373 4.28191 1.17678 2.225041 -0.4221801 2.244419 3.269198 3.76587 3.331967 2.744791 3.237157 1.884011 3.463695 2.004985 -1.75267 -4.359338 1 648
-5.482235 -4.740747 -1.862948 -4.592864 -3.984982 -1.518327 -3.188826 -0.8275675 -2.165289 -0.7445597 -1.455858 0.3871666 -1.481025 -0.5473131 -0.7933899 -3.138796 1.587783 -0.6078036 0.9636137 -0.2642928 1.783085 0.7506621 2.003582 0.4139759 1.17026 -1.45179 1.085518 4.336253 1.431387 2.199944 -0.403331 2.249626 3.291435 3.883262 3.397808 2.758009 3.293595 2.072214 3.515002 2.273837 -1.761297 -3.834724 1 652
-5.888158 -4.642473 -1.839566 -4.541228 -4.273773 -1.546824 -3.244376 -0.8741878 -1.997748 -1.195005 -1.448904 -0.1466543 -1.418648 -0.7000975 -1.08462 -3.40419 1.194864 -0.6135589 0.3186481 0.2460149 1.84279 0.9205624 1.610517 0.6850089 0.7201428 -1.145566 1.327735 4.208944 1.710535 1.966829 -0.1706064 2.023425 3.356415 3.833375 3.504246 2.566326 3.34616 2.1584 3.571293 2.391978 -1.679955 -1.648133 1 656
-6.111644 -4.41429 -2.060298 -4.330664 -4.531656 -1.862956 -3.255836 -0.7935658 -1.767797 -1.527119 -1.108989 -0.2806487 -1.047558 -1.020398 -1.401704 -3.751947 0.7821099 -0.6075982 -0.1944017 0.7327432 1.778121 0.9593731 1.131306 1.036889 0.1244763 -0.5413752 1.421968 4.045006 1.954749 1.579842 0.2063332 1.687866 3.419209 3.734776 3.589375 2.224902 3.375285 2.16339 3.601187 2.370277 -1.853176 0.5444598 1 660
-5.325822 -4.186896 -2.437072 -4.085291 -4.769965 -2.101209 -3.225652 -0.580014 -1.673542 -1.6528 -0.6514424 0.1917747 -0.6265726 -1.352715 -1.686884 -4.065982 0.4557799 -0.6443889 -0.3746509 0.901925 1.638334 0.9074458 0.7419158 1.25848 -0.4827943 -0.1039044 1.408096 3.881988 2.098836 1.24849 0.4745141 1.387673 3.357926 3.638576 3.54221 1.930315 3.311864 2.097196 3.543931 2.292114 -2.34247 2.060651 1 664
-1.906251 -1.34869 -2.491927 -1.657569 -2.343852 -4.237609 -2.270227 -2.347773 0.6718417 -1.952994 0.7565064 -1.808477 0.930607 0.3576578 -4.309113 -0.8768347 -1.623613 2.732972 -1.865296 0.784635 1.096852 3.234278 1.118015 2.238859 1.030797 2.267998 -1.348344 1.300841 4.939805 1.07444 1.756775 1.124894 1.235497 1.166182 2.592858 1.058262 2.095799 1.019791 2.0408 0.3692303 0.7477408 -7.355343 2 -168
-1.816659 -1.152299 -2.134649 -1.235197 -1.8963 -3.93485 -1.857139 -2.750775 0.9865003 -2.210532 1.046631 -2.066839 1.209163 0.5241586 -4.183508 -0.6864578 -1.957508 2.840627 -2.082848 1.103316 0.9041796 3.258156 0.7372505 2.000595 0.649671 2.048966 -1.333044 0.9785725 4.993237 0.7174151 1.775194 0.7104046 1.268014 0.8554299 2.95006 0.6670515 2.312731 0.6919763 2.227563 0.5137419 0.8388913 -7.510617 2 -164
-1.507775 -0.9135675 -1.790444 -0.8453743 -1.494897 -3.65653 -1.342496 -2.858502 1.027061 -2.456243 1.110935 -2.321908 1.228431 0.777746 -4.01368 -0.5364834 -2.194649 2.913334 -2.328712 1.160456 0.8559479 3.275814 0.4455967 1.824328 0.3506543 1.845561 -1.253417 0.7431294 5.007645 0.4390338 1.747981 0.3396826 1.301753 0.6204557 3.201914 0.3976589 2.526598 0.4234578 2.394577 0.6083173 0.6946334 -7.748365 2 -160
-1.224921 -0.7403498 -1.620428 -0.7271826 -1.192462 -3.420329 -0.8918211 -2.720505 0.8201821 -2.54071 0.9545379 -2.43801 1.033149 1.140162 -3.711137 -0.3691112 -2.23825 3.038685 -2.461208 0.9820641 0.9521906 3.381198 0.05400351 1.781209 -0.04730321 1.751533 -1.060979 0.6073592 5.054591 0.03259769 1.822044 -0.1477663 1.305684 0.2575434 3.384354 0.02894261 2.709576 0.03242222 2.521414 0.5472363 0.4722088 -7.111914 2 -156
-1.195516 -0.6643803 -1.687611 -0.8025942 -0.9564588 -3.206606 -0.6709043 -2.695855 0.6300827 -2.585443 0.7874402 -2.514809 0.830584 1.556274 -3.258559 -0.1409867 -2.18566 3.270769 -2.54353 0.7841464 1.091791 3.5352 -0.4324939 1.840204 -0.5512207 1.783541 -0.8637903 0.3867892 5.141441 -0.4991739 2.042441 -0.6833942 1.3018 -0.2174017 3.544383 -0.4564142 2.905592 -0.4702577 2.647473 0.3882549 0.5907834 -5.775888 2 -152
-1.536325 -0.8125708 -1.921698 -0.9367912 -0.854494 -3.165385 -0.8282391 -2.98103 0.4652738 -2.763996 0.6130766 -2.691017 0.6293316 1.921053 -2.791915 0.09662047 -2.142841 3.548633 -2.729743 0.5731895 1.246754 3.657238 -0.6827325 1.922081 -0.8098848 1.864448 -0.7798017 0.05135366 5.182419 -0.7728251 2.301289 -0.8924507 1.368922 -0.428991 3.717485 -0.7187437 3.142619 -0.7239947 2.843771 0.4281276 1.224683 -4.833328 2 -148
-2.061297 -1.144072 -2.182747 -1.270365 -0.9419157 -3.348385 -1.29988 -3.322384 0.1653417 -3.053591 0.2987925 -2.966278 0.3061091 2.214027 -2.443218 0.2760083 -2.127929 3.704764 -3.022515 0.2494091 1.496566 3.683663 -0.5470569 1.858741 -0.6168279 1.814156 -0.7222245 -0.1755305 5.084543 -0.5856717 2.500688 -0.6538727 1.532383 -0.204107 3.901609 -0.5680479 3.450417 -0.5179428 3.157503 0.8300262 1.991568 -4.740643 2 -144
-2.519763 -1.452652 -2.370669 -1.716063 -1.08365 -3.62121 -1.710544 -3.490103 -0.09201581 -3.365781 -0.001985658 -3.291257 0.01135908 2.470824 -2.238972 0.4395659 -2.159074 3.691628 -3.347877 -0.0001776869 1.82354 3.596791 -0.2573757 1.624614 -0.2407376 1.603269 -0.5867806 -0.2071133 4.862744 -0.1936044 2.627385 -0.2444265 1.666358 0.1767218 3.998848 -0.2337582 3.690357 -0.1062662 3.410649 1.338858 2.486946 -4.988423 2 -140
-2.875079 -1.633485 -2.400438 -1.892516 -1.078157 -3.822345 -1.675005 -3.563847 -0.04368424 -3.62483 -0.03519988 -3.579656 -0.01216165 2.723593 -2.089567 0.6890634 -2.208282 3.606579 -3.623131 0.02307411 2.138331 3.448669 -0.1173361 1.425288 -0.08152452 1.414939 -0.4304058 -0.1716603 4.606791 0.01094126 2.675314 -0.01075349 1.622987 0.3648129 3.937054 -0.09573273 3.621032 0.1081612 3.35216 1.66976 2.754138 -5.127894 2 -136
-2.958894 -1.628209 -2.201047 -1.728939 -0.8439428 -3.793204 -1.24307 -3.562518 0.07778699 -3.756943 0.03927133 -3.739818 0.04142744 2.935086 -1.877517 0.9252531 -2.167164 3.412595 -3.764716 0.06642853 2.437821 3.229428 -0.1783796 1.377498 -0.1854814 1.358371 -0.3133113 -0.1756081 4.310009 -0.07122325 2.571396 -0.05694033 1.433248 0.300232 3.747169 -0.2135363 3.312747 0.05122089 3.082157 1.757164 2.91282 -4.918466 2 -132
-2.67614 -1.496972 -1.873333 -1.443541 -0.4918282 -3.468994 -0.8927255 -3.342579 -0.1753622 -3.72551 -0.1958139 -3.748046 -0.231608 3.063592 -1.568973 0.9368221 -1.952464 3.000237 -3.751302 -0.238839 2.753563 2.909687 -0.2490444 1.401941 -0.2827491 1.370553 -0.207934 -0.2170815 3.941125 -0.2091486 2.391492 -0.1763945 1.24668 0.1898 3.496796 -0.3208998 3.04652 -0.04057595 2.871703 1.676185 3.036745 -4.355345 2 -128
-2.421779 -1.410238 -1.703794 -1.269419 -0.2602166 -2.99573 -0.8821444 -2.917142 -0.6749294 -3.540965 -0.6732418 -3.621043 -0.7135444 3.144598 -1.247958 0.7205884 -1.602228 2.421411 -3.601009 -0.7171879 3.060981 2.608004 -0.2018337 1.346087 -0.2282419 1.303534 -0.08733975 -0.2196283 3.558493 -0.1954435 2.436362 -0.1463541 1.126524 0.2023345 3.26213 -0.2662483 2.841619 -0.007239521 2.690725 1.599445 3.302501 -4.020828 2 -124
-2.448504 -1.340653 -1.788774 -1.283524 -0.2726788 -2.605569 -0.9848083 -2.573887 -0.9823523 -3.393882 -0.9819742 -3.511979 -1.004627 3.166881 -1.040688 0.4255166 -1.317357 1.76045 -3.489439 -0.9602741 3.301336 2.406025 -0.03706922 1.07293 -0.04447351 1.038873 0.07354338 -0.1602633 3.166342 0.01485305 2.685302 0.08429763 1.07304 0.3734604 3.095127 -0.05023649 2.626158 0.1860419 2.474303 1.708687 3.779895 -4.241176 2 -120
-2.505277 -1.168439 -1.890933 -1.248678 -0.3878604 -2.341492 -0.9550121 -2.529813 -1.107347 -3.523567 -1.098762 -3.6242 -1.113927 3.138189 -0.9191785 0.1669607 -1.231298 1.105531 -3.64537 -1.011019 3.496226 2.278966 0.134889 0.6543229 0.1514881 0.675761 0.3502892 -0.1197165 2.746776 0.2483598 2.7944 0.3357652 1.1011 0.5850276 3.019107 0.1866494 2.547793 0.4196793 2.408474 1.991937 4.272035 -4.387305 2 -116
-2.375037 -0.9825149 -1.840324 -1.039913 -0.4415522 -2.082067 -0.8167366 -2.608735 -1.270583 -3.729522 -1.250052 -3.779274 -1.261443 3.167231 -0.7401014 0.02317528 -1.15461 0.6856768 -3.85894 -1.149181 3.731556 2.300384 0.09652004 0.3781388 0.1339932 0.4552007 0.788305 -0.1180935 2.415553 0.2126848 2.690227 0.2863711 1.093867 0.5561802 3.013916 0.1532158 2.562348 0.403738 2.445604 2.12302 4.596697 -3.814507 2 -112
-2.216789 -0.9786227 -1.750036 -0.9951157 -0.4776683 -1.857222 -0.7778904 -2.633097 -1.445204 -3.633631 -1.451307 -3.644347 -1.440911 3.269789 -0.4893246 0.01525771 -0.8577904 0.6191971 -3.748611 -1.391832 3.973456 2.494015 -0.128905 0.35709 -0.09814283 0.4244321 1.304385 -0.06466826 2.236642 -0.04786325 2.438481 -0.03115041 0.9196426 0.2732962 2.984836 -0.1265612 2.42179 0.1287302 2.314592 1.878095 4.893796 -2.660476 2 -108
-2.327613 -1.192936 -1.715363 -1.271896 -0.546502 -1.761571 -0.875325 -2.747984 -1.522497 -3.353499 -1.583498 -3.343824 -1.532905 3.366976 -0.2425567 0.05482244 -0.4287881 0.71859 -3.433339 -1.568298 4.139007 2.693281 -0.2680013 0.394413 -0.2817172 0.4095728 1.790343 0.1086161 2.108918 -0.2248402 2.03337 -0.2349801 0.6653506 0.0546211 2.828666 -0.3263181 2.131275 -0.09117114 2.034357 1.499799 5.313534 -1.470668 2 -104
-2.509406 -1.448408 -1.616943 -1.461003 -0.534936 -1.610202 -0.912989 -2.832203 -1.532393 -3.150729 -1.624852 -3.139897 -1.545628 3.422213 -0.01223208 0.04632753 -0.06015233 0.7990662 -3.20142 -1.637976 4.246636 2.804016 -0.2859235 0.2860858 -0.3416592 0.2626154 2.220791 0.3855825 1.947141 -0.2894517 1.582464 -0.2476864 0.4012181 -0.03674575 2.481558 -0.3859189 1.754132 -0.1631763 1.713901 1.190239 5.58866 -0.5503908 2 -100
-2.28251 -1.565603 -1.386472 -1.335248 -0.3730542 -1.242032 -0.8744205 -2.509162 -1.511791 -2.880914 -1.587277 -2.909784 -1.510131 3.40762 0.2128351 0.002201882 0.2512601 0.861261 -2.936333 -1.624548 4.290329 2.844361 -0.4117946 0.0929397 -0.4818765 0.05303176 2.532776 0.6784015 1.732622 -0.4629079 1.228258 -0.3586623 0.1313206 -0.2471257 2.002515 -0.5075315 1.34106 -0.3011738 1.399259 0.7794266 5.392388 0.06724079 2 -96
-1.79348 -1.504194 -1.124506 -1.113199 -0.1654682 -0.8885055 -0.8295181 -1.994432 -1.444389 -2.433715 -1.467024 -2.516412 -1.414206 3.23245 0.3831287 -0.03458836 0.5338612 0.8535706 -2.505167 -1.510653 4.18006 2.713506 -0.5851235 0.002162765 -0.6742399 -0.04813951 2.593325 0.8879156 1.422664 -0.6494452 0.967374 -0.559407 -0.01531352 -0.5137939 1.502585 -0.6510141 1.057886 -0.4828727 1.171297 0.3158881 4.845434 0.2556286 2 -92
-1.414227 -1.3112 -0.9437897 -0.886551 -0.05473925 -0.7650481 -0.8029983 -1.623897 -1.388505 -1.948183 -1.36441 -2.042588 -1.333345 2.865614 0.4300314 -0.1063657 0.7148219 0.6672649 -2.017212 -1.3705 3.842271 2.326263 -0.4577403 -0.07903072 -0.5852478 -0.1342935 2.411791 1.037837 0.988336 -0.5031632 0.7569345 -0.4918022 -0.004365856 -0.4661225 0.9668249 -0.521023 0.8610933 -0.3953565 0.9791303 0.1060062 4.242429 -0.1847125 2 -88
-1.10062 -1.0775 -0.8977857 -0.6582546 -0.08937934 -0.822102 -0.9226827 -1.209654 -1.304449 -1.406965 -1.286485 -1.45191 -1.236371 2.436069 0.3709495 -0.2713771 0.8004267 0.3710848 -1.432077 -1.204701 3.307936 1.846194 -0.09740818 -0.3249164 -0.2460976 -0.3650661 2.134379 1.259148 0.5341275 -0.1278329 0.653666 -0.19584 0.03949616 -0.1595875 0.4641061 -0.1753726 0.6185368 -0.1034394 0.7775397 0.03990375 3.594163 -1.07951 2 -84
-0.8074182 -0.9244566 -0.9679762 -0.6521787 -0.2405968 -0.9958857 -1.234755 -0.6913384 -1.098186 -0.7331671 -1.12028 -0.7050638 -1.02476 1.999845 0.2516229 -0.502642 0.8400772 0.06800368 -0.6853424 -0.9673102 2.691936 1.422341 0.156143 -0.5530091 0.02948441 -0.5654144 1.826479 1.538148 0.1800044 0.1180915 0.690398 0.00637787 0.1270926 0.06065789 0.1799375 0.074056 0.4908082 0.07847042 0.6969289 -0.1251491 2.797347 -1.729634 2 -80
-0.6579764 -0.9226479 -1.092926 -0.8962055 -0.4289457 -1.16669 -1.583139 -0.2695715 -0.9557438 -0.03953608 -0.9877174 0.006952839 -0.8961753 1.485193 0.08718865 -0.7224213 0.8277952 -0.2633965 0.04434682 -0.851224 2.063312 0.9941902 0.3644644 -0.5284037 0.2887812 -0.547918 1.491692 1.693918 -0.0942072 0.3049728 0.773711 0.2184083 0.2965597 0.2572244 0.05706133 0.2994116 0.5400802 0.2362213 0.7419741 -0.2246364 1.895037 -1.838388 2 -76
-0.6120725 -0.9135008 -1.187331 -0.9601261 -0.5383789 -1.108526 -1.70666 -0.001263716 -1.043754 0.5492284 -1.052001 0.5460541 -1.016345 0.8995027 -0.08803213 -0.8494383 0.7803211 -0.5905685 0.6135855 -0.9694573 1.421879 0.5543875 0.6992006 -0.3780936 0.6709528 -0.4370033 1.145093 1.671354 -0.3536954 0.6395649 0.8100255 0.622869 0.418552 0.5925154 -0.1385551 0.6675036 0.4979174 0.543597 0.6815617 -0.1483009 0.9783835 -1.910032 2 -72
-0.4729289 -0.6382572 -1.158414 -0.6537266 -0.5290322 -0.8254368 -1.406486 0.115226 -1.162309 0.9732286 -1.133178 0.9364683 -1.152376 0.3148609 -0.242465 -0.8251852 0.7161841 -0.7347431 1.016401 -1.096108 0.7859451 0.2266538 0.9737396 -0.2564923 0.9738871 -0.3218769 0.7691334 1.530496 -0.5904216 0.9633062 0.8274457 0.9575941 0.4309894 0.869235 -0.4652333 0.9786329 0.2563859 0.8076075 0.425106 -0.1056693 0.1173743 -2.195189 2 -68
-0.2624576 -0.2513582 -0.9944932 -0.3412795 -0.495965 -0.6546964 -0.8226377 0.09098668 -1.048936 1.150974 -0.9629648 1.133884 -1.042518 -0.2169134 -0.3920624 -0.6643188 0.6152737 -0.5676594 1.19944 -0.9999723 0.1927556 0.04180049 1.046921 -0.0349527 1.063295 -0.08193535 0.3558061 1.27186 -0.7351345 1.112656 0.8392364 1.055206 0.4257931 0.9597447 -0.7957885 1.098351 -0.01478223 0.8884987 0.1276609 -0.1670483 -0.6703511 -2.452203 2 -64
-0.1686438 -0.205862 -0.8287994 -0.3323044 -0.5914405 -0.8481194 -0.4011789 0.1162067 -0.7721308 1.161106 -0.6486391 1.1585 -0.7949095 -0.6698968 -0.5970185 -0.4869812 0.4339353 -0.2167794 1.208981 -0.7687517 -0.3773628 -0.1090479 1.129948 0.2221482 1.140178 0.1447714 -0.03862385 0.9087813 -0.7633606 1.225069 0.8168825 1.172729 0.4952843 1.049591 -0.9768285 1.234184 -0.1283729 0.9941644 -0.03212495 -0.1296865 -1.35019 -2.375587 2 -60
-0.1283467 -0.4398598 -0.7144526 -0.4759783 -0.7926207 -1.179884 -0.2814445 0.3945424 -0.4621859 1.169493 -0.3775904 1.153429 -0.5455727 -1.019545 -0.8151522 -0.384661 0.1355537 0.09044654 1.201804 -0.520014 -0.9383456 -0.2830314 1.209552 0.2926854 1.207829 0.1577275 -0.3467989 0.4552375 -0.6974898 1.252055 0.7828287 1.283569 0.6038158 1.097432 -0.9464039 1.328281 -0.04876065 1.109429 -0.01322902 0.04033381 -1.765065 -1.790182 2 -56
0.1569373 -0.4076554 -0.4917741 -0.3894693 -0.8589604 -1.170155 -0.1413772 0.8952664 -0.0121209 1.162144 -0.01398181 1.141105 -0.13621 -1.249259 -0.8664272 -0.3083284 -0.2078688 0.2532537 1.190426 -0.107691 -1.418262 -0.4344485 0.9162555 0.3155098 0.9218073 0.2001663 -0.5707006 -0.1058199 -0.5545412 0.8845736 0.7022179 0.9711302 0.6224703 0.7673175 -0.8029865 0.9982195 0.07931348 0.8541273 0.06587531 0.03319538 -1.939359 -0.9436787 2 -52
0.6596617 0.07557111 -0.1531375 -0.03350404 -0.6480283 -0.6887929 0.2597653 1.397016 0.6126182 1.139594 0.5503437 1.130508 0.5120389 -1.410661 -0.6892784 -0.162224 -0.4377049 0.3049672 1.157814 0.5277765 -1.78146 -0.5459292 0.2705646 0.3392386 0.2662676 0.3289075 -0.78258 -0.7142571 -0.41336 0.2139693 0.523285 0.270635 0.5264398 0.1218542 -0.6680933 0.3106532 0.08683043 0.2345734 0.07664797 -0.2098868 -2.046826 -0.512127 2 -48
1.021511 0.6939377 0.1874804 0.2869221 -0.2408018 -0.003631525 0.8864771 1.683277 1.271795 1.176545 1.191185 1.173074 1.228311 -1.572965 -0.4037285 0.09502263 -0.4907389 0.3426424 1.155084 1.219732 -2.0705 -0.6555539 -0.3432882 0.1908954 -0.3806136 0.2780528 -1.024854 -1.237914 -0.3767581 -0.3664778 0.2298807 -0.3947646 0.3535689 -0.4643498 -0.5925302 -0.3427698 -0.09658031 -0.3640122 -0.04894161 -0.4143574 -2.025424 -0.7540482 2 -44
1.2318 1.120415 0.5629382 0.5088599 0.1587646 0.6084927 1.469796 1.804844 1.689187 1.252606 1.633426 1.237596 1.689099 -1.733742 -0.1446895 0.3792547 -0.4634118 0.3604897 1.201412 1.669236 -2.269527 -0.8137515 -0.7222194 0.0452155 -0.7698736 0.1632236 -1.226024 -1.538254 -0.4148941 -0.6993886 -0.201022 -0.805767 0.09893039 -0.8375408 -0.6324126 -0.7538803 -0.415815 -0.7361685 -0.3308852 -0.5526922 -1.93215 -0.8919212 2 -40
1.349262 1.32212 0.8783042 0.7217726 0.4111616 1.002944 1.77926 1.797156 1.602597 1.223853 1.617821 1.205897 1.631804 -1.863173 0.02021931 0.5800468 -0.4529748 0.274702 1.184386 1.614397 -2.340431 -1.02225 -0.7700517 0.07660016 -0.7791592 0.1860507 -1.27738 -1.533674 -0.3777571 -0.720748 -0.7207417 -0.8278257 -0.1943408 -0.8774441 -0.7190964 -0.7851997 -0.7276962 -0.7659704 -0.686236 -0.5912872 -2.033438 -0.413672 2 -36
1.262503 1.432097 0.9864503 0.8229578 0.5510237 1.233113 1.83961 1.553716 1.136821 0.9987692 1.219636 0.9984469 1.192459 -1.914625 0.1338224 0.7054158 -0.4335157 0.1384397 0.9761342 1.164745 -2.335833 -1.172605 -0.5891989 0.1501129 -0.5225925 0.2619548 -1.19458 -1.331889 -0.161633 -0.5222368 -1.200671 -0.5774704 -0.4108075 -0.6374649 -0.6085147 -0.5664692 -0.8297318 -0.5447041 -0.8895218 -0.4217482 -2.256673 0.3642933 2 -32
1.14956 1.411195 1.035134 0.8345351 0.6198048 1.448367 1.672369 1.227235 0.6966248 0.7223269 0.8000828 0.7302196 0.7671658 -1.840091 0.2613665 0.7620397 -0.3906856 0.03687722 0.6880513 0.7149909 -2.330496 -1.20188 -0.4695174 0.1444047 -0.341995 0.2557889 -1.115448 -1.187371 0.1412888 -0.4124953 -1.509384 -0.4232789 -0.5136959 -0.4676985 -0.2551087 -0.4365281 -0.7054087 -0.3933397 -0.869763 -0.219289 -2.382828 1.346449 2 -28
1.124611 1.156282 1.216131 0.9276748 0.6057973 1.605971 1.29056 0.9066786 0.5657598 0.5290814 0.6362396 0.5408801 0.6240053 -1.713767 0.3308798 0.6907591 -0.4075174 -0.1096266 0.4750857 0.5631244 -2.35329 -1.235696 -0.3983421 -0.004533356 -0.2623552 0.06942074 -1.141411 -1.206783 0.2906929 -0.3894937 -1.554871 -0.3491047 -0.5193777 -0.3872541 0.1166133 -0.3596154 -0.557705 -0.3084676 -0.7998227 -0.04420549 -2.453308 2.290164 2 -24
1.060407 0.8666284 1.456207 1.061597 0.568355 1.620625 0.817008 0.4652655 0.8105025 0.3892887 0.8110831 0.4246941 0.8354782 -1.611739 0.269459 0.5009202 -0.5277789 -0.3664723 0.3315865 0.7909518 -2.36512 -1.376665 -0.2759304 -0.2124275 -0.1652702 -0.1810121 -1.286054 -1.252404 0.1671454 -0.2820134 -1.433799 -0.219369 -0.4739317 -0.2258189 0.2943367 -0.2178584 -0.5412616 -0.1701343 -0.8107506 0.1648095 -2.431096 2.72065 2 -20
0.9924309 0.830035 1.640836 1.210947 0.6639054 1.65008 0.4320647 0.02032042 1.27592 0.2263607 1.221284 0.279311 1.265876 -1.411294 0.2227172 0.3402312 -0.6676992 -0.6008611 0.1872744 1.26891 -2.239927 -1.568282 -0.2617453 -0.2526357 -0.17538 -0.2240696 -1.529322 -1.17181 -0.1250258 -0.2375215 -1.415731 -0.2067403 -0.5675041 -0.1217761 0.1749229 -0.2107396 -0.7557461 -0.1525198 -0.9937618 0.2553149 -2.081818 2.812624 2 -16
0.9426206 0.9644065 1.835541 1.355689 0.9342579 1.761195 0.346868 -0.2906953 1.560455 -0.06782588 1.499579 -0.01507532 1.521949 -1.014063 0.3631645 0.3596378 -0.7233635 -0.6796491 -0.06196823 1.592823 -1.894276 -1.732228 -0.4141417 -0.0395342 -0.3352366 0.003896713 -1.807623 -0.9592438 -0.4103264 -0.3873294 -1.472409 -0.3680147 -0.7732871 -0.187092 -0.0929436 -0.3968967 -1.010722 -0.3240064 -1.213891 0.1738843 -1.521625 2.977307 2 -12
0.7864456 0.9795433 1.975225 1.324859 1.121802 1.706038 0.5373644 -0.4984007 1.419497 -0.4569639 1.377245 -0.3922088 1.358793 -0.5700684 0.5223221 0.4673454 -0.7001729 -0.6419752 -0.3920795 1.447119 -1.409055 -1.815138 -0.4729492 0.2343498 -0.3873856 0.2688531 -2.02324 -0.6883642 -0.5991844 -0.463346 -1.37491 -0.4172229 -0.8108099 -0.2040903 -0.2496836 -0.4673811 -0.985445 -0.3979229 -1.185129 0.09181272 -1.2097 3.194459 2 -8
0.4723365 0.7582716 1.784554 1.133214 0.9474749 1.332883 0.5891442 -0.5471191 1.095112 -0.7065977 1.068474 -0.6240785 1.021569 -0.2515621 0.3913769 0.3893285 -0.6859267 -0.6503384 -0.6002122 1.055101 -0.8991745 -1.807207 -0.2114136 0.2716853 -0.1134987 0.2722685 -2.116628 -0.3908983 -0.7362319 -0.2004065 -1.301071 -0.115562 -0.6880987 0.05833304 -0.296281 -0.2110947 -0.7660153 -0.1434257 -0.9828252 0.1631434 -1.35136 3.592453 2 -4
0.1014036 0.357792 1.235327 0.8548931 0.4132814 0.7028973 0.2236629 -0.5055456 0.8576189 -0.7206385 0.8378942 -0.661629 0.786231 -0.07273445 -0.03617167 0.03737198 -0.7946579 -0.7971586 -0.6396797 0.7619185 -0.3958967 -1.733987 0.3234182 0.09047746 0.4306186 0.07313693 -2.081946 -0.03669187 -0.8392416 0.3307517 -1.503783 0.4753332 -0.6094715 0.5708287 -0.3100485 0.3000194 -0.6057231 0.3848226 -0.8592512 0.3849937 -1.639496 4.309604 2 0
-0.0346214 -0.08065116 0.6848421 0.6034811 -0.2505065 -0.02029139 -0.2901669 -0.5451271 0.6364663 -0.6727428 0.6168665 -0.6908815 0.5820823 0.04038291 -0.5677103 -0.4003971 -1.072884 -0.8971937 -0.686821 0.5414124 0.08658333 -1.50723 0.8733004 -0.03556326 0.9698946 -0.02671935 -1.893533 0.369081 -0.7822914 0.8565502 -1.821303 1.032551 -0.6603304 1.081293 -0.2469755 0.8389208 -0.6219335 0.9321028 -0.8768569 0.5741819 -1.489028 4.851509 2 4
0.07973606 -0.435038 0.4203988 0.5214803 -0.7633047 -0.5862232 -0.5301044 -0.6186301 0.4252957 -0.7951403 0.4255075 -0.8918509 0.3992293 0.1571125 -1.03957 -0.7451763 -1.402893 -0.7466851 -0.8805051 0.3837669 0.5234535 -0.99843 1.096049 -0.01860104 1.165842 0.008775283 -1.487368 0.7787737 -0.5066538 1.063082 -1.99606 1.189483 -0.8153153 1.305548 -0.09309478 1.071187 -0.7970184 1.166616 -0.9783917 0.6637316 -0.8041579 5.084819 2 8
0.04189712 -0.7001941 0.3416359 0.4293533 -1.026868 -0.9343206 -0.4386128 -0.597505 0.4322149 -1.064979 0.4754147 -1.199196 0.44472 0.2605924 -1.374587 -1.004651 -1.651749 -0.4980779 -1.138548 0.4793091 0.9040161 -0.3153608 0.9537503 -0.009996474 1.030697 0.005523859 -0.8537036 1.241806 -0.1659472 0.9488351 -2.00234 1.012484 -0.9949308 1.277452 0.09835592 0.9513698 -1.025667 1.082998 -1.127104 0.7994627 -0.07682154 4.989559 2 12
-0.112841 -0.8601227 0.2033774 0.2663727 -1.188109 -1.174555 -0.3579021 -0.4557591 0.6570796 -1.217193 0.7316265 -1.358559 0.7097901 0.3407564 -1.614702 -1.243484 -1.813437 -0.3831584 -1.249626 0.7734653 1.232234 0.3137594 0.7140514 -0.04808241 0.8395096 -0.02141068 -0.09970169 1.820613 0.1137118 0.7658573 -2.06141 0.8182787 -1.204778 1.198498 0.2541577 0.7556161 -1.273134 0.9315062 -1.36781 0.8941336 0.563465 4.207865 2 16
-0.0431749 -0.8530621 -0.07419107 0.2312526 -1.418118 -1.323245 -0.5929014 -0.3734423 0.8661832 -1.26037 0.9748182 -1.372722 0.9486458 0.4266301 -1.817461 -1.471001 -1.923653 -0.2963691 -1.263498 0.9987295 1.510853 0.8591282 0.5150297 0.2298774 0.6541126 0.28346 0.5970313 2.419343 0.4299404 0.5889692 -2.347068 0.663879 -1.499031 1.070349 0.3377133 0.6099193 -1.566755 0.765249 -1.729083 0.7038733 1.12987 3.41028 2 20
0.2038983 -0.7478874 -0.3908359 0.2893691 -1.727776 -1.386189 -1.08224 -0.4684435 0.8545811 -1.400451 1.021724 -1.442973 0.9694393 0.482297 -1.976762 -1.704785 -2.003493 -0.1154054 -1.379898 0.9877238 1.724415 1.341281 0.4652111 0.858305 0.5587647 0.9349465 1.13763 2.94098 0.844759 0.5146117 -2.676531 0.6047111 -1.777534 0.9701011 0.376092 0.5912372 -1.845843 0.6642802 -2.077033 0.3442098 1.348567 3.174663 2 24
0.397882 -0.70387 -0.6658714 0.2442087 -2.030533 -1.391288 -1.533872 -0.5869211 0.6120439 -1.633076 0.8279316 -1.61244 0.765884 0.4803633 -2.082497 -1.965605 -2.058386 0.01969448 -1.614666 0.7453892 1.826327 1.662342 0.7078702 1.070638 0.7508397 1.185621 1.522028 3.363175 1.191158 0.719257 -2.819891 0.7933208 -1.868691 1.106512 0.4535429 0.8188515 -1.945946 0.8229381 -2.181459 0.1961897 1.398922 3.012198 2 28
0.4269818 -0.7828913 -0.8516459 0.02843809 -2.239426 -1.368538 -1.716825 -0.6775 0.348067 -1.929412 0.5798321 -1.875948 0.5034358 0.4717348 -2.132038 -2.129193 -2.079809 0.1311556 -1.925582 0.4497236 1.781878 1.843004 1.019436 0.6258069 1.043445 0.7600962 1.758993 3.618423 1.370008 0.9908442 -2.719998 1.03659 -1.716838 1.334789 0.6338894 1.085753 -1.72364 1.077066 -1.910288 0.3578233 1.593917 2.908238 2 32
0.3729157 -0.9719867 -0.8515987 -0.3337944 -2.286221 -1.36774 -1.666784 -0.6387926 0.1450834 -2.114534 0.342913 -2.046647 0.2442943 0.5142208 -2.085433 -2.018863 -2.047266 0.3546511 -2.09587 0.1832914 1.646549 2.005771 1.091685 0.05028701 1.147909 0.142222 1.859661 3.725373 1.429319 1.033999 -2.347745 1.064569 -1.440667 1.37548 0.8079199 1.149143 -1.293639 1.149044 -1.450529 0.519361 1.595357 3.107279 2 36
0.2642648 -1.208062 -0.6455051 -0.788398 -2.187377 -1.392514 -1.448891 -0.4594824 0.03362209 -1.959591 0.1499116 -1.889091 0.07263578 0.5465977 -1.934604 -1.659691 -1.912331 0.6250787 -1.904753 0.01543645 1.473123 2.132846 1.049398 -0.3990524 1.153594 -0.3750717 1.748685 3.789091 1.357127 0.9880949 -1.922551 1.018249 -1.237756 1.310761 0.7714124 1.142646 -1.025362 1.122538 -1.210906 0.4447566 1.014063 3.337038 2 40
-0.0003476576 -1.320209 -0.3555188 -1.083644 -2.05133 -1.442729 -1.020228 -0.5874454 0.2232279 -1.738835 0.2641472 -1.665109 0.2223578 0.4438589 -1.764443 -1.230669 -1.685566 0.8817774 -1.661564 0.1992826 1.210514 2.130144 1.089626 -0.5435864 1.171952 -0.5561646 1.319623 3.763348 1.15823 1.037719 -1.733607 1.078261 -1.11856 1.298753 0.482046 1.18516 -1.02524 1.136867 -1.24806 0.2743064 0.1006233 3.161434 2 44
-0.2479589 -1.233714 -0.1237545 -1.010216 -1.992303 -1.471516 -0.6274776 -0.9844597 0.5868809 -1.697107 0.5901609 -1.619526 0.5373685 0.1983532 -1.64004 -0.9315388 -1.447815 1.057614 -1.643531 0.5987995 0.8186514 1.946883 1.230914 -0.2819745 1.257823 -0.3054931 0.6760922 3.56138 0.9049379 1.197207 -1.727413 1.245813 -0.9873593 1.3842 0.09512175 1.281129 -1.091768 1.248137 -1.315542 0.2573454 -0.8068876 2.51202 2 48
-0.2476897 -1.083079 0.01884027 -0.6691463 -1.994037 -1.351291 -0.608737 -1.112601 0.7416273 -1.52855 0.7519734 -1.449996 0.6606929 -0.1262153 -1.532163 -0.8328615 -1.228582 1.037472 -1.525505 0.7664354 0.3618643 1.574566 1.442706 0.0572852 1.474492 0.02152339 0.04832625 3.280202 0.6279021 1.453921 -1.763507 1.484505 -0.8506019 1.557645 -0.2306728 1.447553 -1.128988 1.470647 -1.342045 0.3749409 -1.699603 1.650959 2 52
-0.1408616 -1.007773 0.07000437 -0.3059097 -1.952422 -1.104409 -0.8725809 -0.9825841 0.6552485 -1.051396 0.7119177 -0.978554 0.5889711 -0.505116 -1.462178 -0.8400612 -1.074551 0.8215688 -1.07647 0.6498137 -0.0962764 1.06796 1.698163 0.07824398 1.761335 0.03456827 -0.4619334 3.085104 0.3277385 1.756195 -1.716744 1.768119 -0.6538275 1.761666 -0.4108638 1.669213 -1.053266 1.742045 -1.260344 0.5093414 -2.378524 0.6292078 2 56
-0.03965135 -1.034406 0.04907484 -0.1323035 -1.903638 -0.9118372 -1.121754 -0.7975296 0.5423945 -0.566222 0.6474285 -0.5202938 0.4820292 -0.9410517 -1.535234 -0.9088421 -1.068501 0.540062 -0.5897033 0.4870524 -0.5914062 0.5472522 1.977096 -0.2464505 2.060543 -0.2827034 -0.8956713 2.967461 0.06369226 2.038949 -1.349208 2.0773 -0.3216853 1.978819 -0.4281933 1.939716 -0.7974787 2.016773 -1.002024 0.6709417 -2.665407 -0.4354235 2 60
0.208043 -1.025079 0.113786 -0.01140969 -1.885014 -0.8184563 -1.163885 -0.5082549 0.5919744 -0.372014 0.7293127 -0.3614194 0.5054305 -1.39171 -1.720343 -0.9751235 -1.174677 0.4051563 -0.3815845 0.4914302 -1.152167 0.1283122 2.082085 -0.4387307 2.174784 -0.4505043 -1.315907 2.754607 -0.04193039 2.110982 -0.5762699 2.174734 0.07741516 2.058233 -0.3666545 2.044641 -0.4861465 2.097208 -0.7052264 0.8080847 -2.832905 -1.401333 2 64
0.5883086 -0.787097 0.3442382 0.3099238 -1.816463 -0.7693594 -0.8850044 -0.07145134 0.8325114 -0.3695365 0.9922161 -0.3602985 0.7574473 -1.811185 -1.924289 -0.9327705 -1.341672 0.4831856 -0.3627218 0.7423403 -1.731871 -0.1956348 1.887047 -0.1482755 1.949062 -0.1262552 -1.762455 2.335982 0.004041607 1.884055 0.2444931 1.920356 0.422053 1.87131 -0.3685256 1.823635 -0.2884301 1.866906 -0.5171177 0.8331318 -3.180872 -2.340076 2 68
0.900437 -0.3737198 0.5724986 0.7234399 -1.742142 -0.7799683 -0.3034975 0.4321456 1.19225 -0.310829 1.38311 -0.2696558 1.190517 -2.228818 -2.170368 -0.8272768 -1.59992 0.6346638 -0.2990346 1.189137 -2.284174 -0.5159888 1.622607 0.3275169 1.646308 0.3874695 -2.241614 1.74519 -0.002733274 1.6335 0.7478099 1.626644 0.6869265 1.593093 -0.4977398 1.548691 -0.2020641 1.579822 -0.4252023 0.7468378 -3.691139 -3.344959 2 72
1.017497 -0.00622461 0.6938695 1.069493 -1.733642 -0.7803177 0.4231316 0.6381753 1.613992 -0.2714031 1.87939 -0.223294 1.688125 -2.631609 -2.414629 -0.7034034 -1.87255 0.8474976 -0.2861142 1.719041 -2.742878 -0.7995913 1.428907 0.7196097 1.445595 0.8287162 -2.673539 1.082873 -0.1610502 1.504022 1.022066 1.468904 0.9467891 1.354467 -0.6503653 1.366889 -0.07201698 1.376045 -0.3160544 0.6583061 -4.180629 -4.273847 2 76
0.9915844 0.2263221 0.8052422 1.302789 -1.754405 -0.6791575 1.082037 0.3586689 1.90544 -0.3482436 2.252792 -0.3292676 2.013002 -2.913814 -2.57213 -0.5594521 -1.997608 1.179396 -0.4051356 2.057603 -2.995552 -0.9195865 1.253284 1.037116 1.284789 1.186155 -2.904774 0.4838243 -0.3462256 1.394553 1.154339 1.330579 1.13213 1.155962 -0.7217847 1.196168 0.0676938 1.221357 -0.2222569 0.6678082 -4.468835 -4.602504 2 80
0.9770025 0.249804 0.9348032 1.358488 -1.844568 -0.6074523 1.426569 0.08005041 1.932495 -0.337249 2.29047 -0.3425065 2.045425 -3.02136 -2.692361 -0.4952542 -1.962352 1.475217 -0.4174675 2.040616 -3.022814 -0.8524479 1.096403 1.192305 1.163826 1.336312 -2.857208 0.02293945 -0.4094762 1.258567 1.070393 1.181091 1.160795 1.017506 -0.6471747 1.056742 0.1454562 1.135447 -0.1650919 0.7275061 -4.403059 -4.298616 2 84
0.9907106 -0.01202839 1.099698 1.318072 -2.005046 -0.6837186 1.440294 0.1771781 1.901206 -0.2097992 2.174489 -0.2174762 2.028208 -3.011345 -2.782493 -0.5386306 -1.862865 1.517008 -0.2880284 1.931041 -2.930803 -0.7206895 0.942881 1.100065 1.032977 1.211784 -2.616199 -0.3216484 -0.3303136 1.062194 0.7810339 1.028131 1.126188 0.9077539 -0.3391827 0.9278218 0.2610958 1.054192 -0.01885206 0.7782541 -4.016282 -3.886151 2 88
1.059353 -0.3581837 1.383445 1.375987 -2.036376 -0.7685239 1.474953 0.4043593 2.008273 -0.1971428 2.146474 -0.1903017 2.149534 -2.89924 -2.741769 -0.5258381 -1.765836 1.294848 -0.2654203 1.988523 -2.787256 -0.6826426 0.7827271 0.6511157 0.8419432 0.7451285 -2.311969 -0.5734295 -0.2411965 0.8296115 0.3860811 0.8587977 1.048781 0.7859526 0.08567459 0.7949368 0.3648238 0.904193 0.1329021 0.760651 -3.415901 -3.497657 2 92
1.233239 -0.4901638 1.634055 1.556076 -1.862431 -0.7209803 1.736284 0.479438 2.096666 -0.4004979 2.1658 -0.3851952 2.226472 -2.644639 -2.573018 -0.3395756 -1.745946 1.091673 -0.4723962 2.049536 -2.623861 -0.75935 0.6059111 0.07249863 0.6098289 0.1602354 -2.00089 -0.8159167 -0.2118899 0.6128649 0.2434764 0.6494417 1.02917 0.6111202 0.4327232 0.6558571 0.5097944 0.6891968 0.3055873 0.718434 -2.793293 -3.335369 2 96
1.346657 -0.326831 1.61418 1.685665 -1.669716 -0.6010686 1.983976 0.3446267 1.973042 -0.6524372 2.067827 -0.6366656 2.071726 -2.351933 -2.403251 -0.09310722 -1.829442 1.105516 -0.7281975 1.89915 -2.494028 -0.8538156 0.3864647 -0.05989946 0.3666787 0.02041635 -1.702235 -1.104896 -0.1796523 0.4000101 0.5922062 0.395255 1.212031 0.3815419 0.7105314 0.4580336 0.8585812 0.4644845 0.675033 0.8272558 -2.489865 -3.663317 2 100
1.345816 0.03402827 1.447437 1.711194 -1.516729 -0.4256452 2.016116 0.05900294 1.795746 -0.6949287 1.898788 -0.6603555 1.8689 -2.123746 -2.239513 0.09513057 -1.88269 1.110339 -0.7472984 1.71324 -2.368768 -0.9175693 0.07962155 0.1624572 0.07810717 0.2710656 -1.438132 -1.304919 -0.1512973 0.1208963 1.149352 0.06044391 1.418563 0.08585146 0.9381952 0.1542675 1.213093 0.1896376 1.037789 0.9135566 -2.298509 -4.198829 2 104
1.381721 0.3882431 1.37273 1.822264 -1.293256 -0.1228943 1.887579 -0.1965598 1.722321 -0.5701509 1.776751 -0.5243555 1.78076 -1.8721 -1.979465 0.2781555 -1.783372 0.8878434 -0.5833361 1.641285 -2.159181 -0.9689333 -0.3574541 0.3576905 -0.3305729 0.5430244 -1.194864 -1.308218 -0.1376185 -0.3021828 1.600825 -0.4095351 1.470205 -0.3010005 1.112062 -0.2993486 1.421371 -0.2604053 1.206671 0.7447169 -1.781256 -4.660388 2 108
1.441172 0.5291456 1.345736 2.087556 -1.057922 0.1693143 1.579507 -0.3367187 1.60874 -0.597542 1.633965 -0.5867833 1.64835 -1.535418 -1.673551 0.4229305 -1.641204 0.4857326 -0.5925942 1.527089 -1.881882 -1.013209 -0.7659151 0.6129715 -0.7166451 0.8615488 -0.9777162 -1.233819 -0.0535163 -0.7364285 1.867045 -0.8455036 1.495706 -0.6187826 1.346932 -0.7626749 1.69471 -0.7334221 1.42704 0.6068648 -1.232987 -4.796929 2 112
1.42573 0.4258546 1.295737 2.229285 -0.8774102 0.2357011 1.234278 -0.4603063 1.400549 -0.9348612 1.474771 -0.9861252 1.427666 -1.144762 -1.392675 0.4589474 -1.655489 0.03017726 -0.968346 1.342002 -1.655653 -1.01079 -0.9688679 0.9245893 -0.9135087 1.174706 -0.8396491 -1.260749 0.1240476 -0.9702542 1.978872 -1.055246 1.655221 -0.737901 1.707371 -1.006036 2.154269 -0.99081 1.888158 0.7265242 -0.8854481 -4.599131 2 116
1.274 0.1778188 1.287966 2.001131 -0.6633598 0.09336697 1.183094 -0.649228 1.140256 -1.434853 1.30832 -1.530952 1.163853 -0.7584035 -1.09084 0.4771913 -1.893016 -0.3373098 -1.544923 1.111545 -1.564774 -0.9326618 -1.012802 1.095388 -0.9691032 1.293084 -0.7491591 -1.373023 0.3382589 -1.024936 2.170401 -1.083102 1.943551 -0.7491731 2.148352 -1.02555 2.680062 -1.053133 2.447823 0.9773022 -0.4439655 -4.428766 2 120
0.9977604 -0.05814301 1.28517 1.665509 -0.4473647 -0.06254998 1.321186 -0.847677 0.7492594 -1.856653 0.9557642 -1.950012 0.754726 -0.5552567 -0.8625908 0.4309156 -2.348541 -0.6383312 -2.008262 0.7264711 -1.660067 -0.8518957 -0.9928465 1.073978 -0.9353341 1.22676 -0.6547724 -1.443363 0.5846061 -1.011353 2.732005 -1.015467 2.316471 -0.7284129 2.640596 -0.949276 3.21842 -0.9924718 3.006935 1.293921 0.01232507 -4.121859 2 124
0.6559995 -0.1438976 1.10564 1.562579 -0.3892482 -0.1610914 1.371338 -0.9478083 0.3160235 -2.094221 0.4582805 -2.142811 0.2780274 -0.7336931 -0.9390509 0.1325424 -3.024708 -1.01371 -2.228968 0.2700668 -1.995524 -0.880302 -0.8872252 0.9265131 -0.7774335 1.089488 -0.6160567 -1.449154 0.859757 -0.8789928 3.570049 -0.8119342 2.813816 -0.5973982 3.1809 -0.7861928 3.867435 -0.7733086 3.683997 1.727448 0.1230284 -3.720491 2 128
