Fp1 Fp2 AF3 AF4 Fz F3 F4 F7 F8 FC5 FC6 FT7 FT8 Cz FC1 FC2 C3 C4 T7 T8 A1 A2 CP1 CP2 CP5 CP6 TP7 TP8 Pz P3 P4 P7 P8 PO9 PO10 PO3 PO4 PO7 PO8 O1 O2 Oz ID time
1.650628 -1.306023 0.3113459 -1.399174 -0.9421484 1.436514 -1.826828 2.068016 -0.3761227 0.7584952 -1.474448 2.516424 -1.378996 -3.033895 0.700782 -3.572848 0.2885947 -3.195103 2.054031 -1.545325 -1.254807 -2.484273 1.161418 -2.356766 3.134187 -0.9253505 1.193968 0.3426018 -0.7764052 2.695716 -1.225708 1.553789 0.3293299 0.4169292 0.2330409 1.93855 0.2923055 1.26339 0.8105028 0.5449131 -5.675151 7.053843 1 -168
0.8610399 -1.258504 0.4030176 -1.357508 -0.9131779 1.179449 -1.927289 1.841962 -0.2549097 0.5809796 -1.154358 2.186677 -1.060322 -2.679111 0.8278627 -3.401807 0.400001 -3.061701 1.414948 -1.123264 -1.017658 -2.217327 1.064025 -2.364929 2.50862 -1.493458 1.309203 0.3356448 -0.8093749 2.37217 -1.61616 1.112385 0.06202661 0.3486611 -0.04931072 1.800792 0.001567916 1.057706 0.5273838 0.3781675 -4.993908 10.1797 1 -164
1.217129 -0.9131235 0.3958339 -1.007098 -0.7622615 1.440361 -1.742491 1.76483 -0.03457939 0.3882996 -0.9823584 1.879916 -0.89799 -2.279743 0.9456469 -3.030414 0.318734 -3.000961 0.5393707 -1.138654 -0.9370775 -1.971537 0.7473163 -2.477263 1.525861 -1.738697 1.349056 0.1170494 -0.8392714 1.58696 -1.995333 0.2544926 -0.2405538 0.0692677 -0.3759869 1.209195 -0.3149612 0.534089 0.1433244 0.1034767 -4.215613 14.36577 1 -160
2.368678 -0.5348784 0.4200195 -0.6351216 -0.5574561 1.924977 -1.418705 1.761176 0.3598456 0.2762892 -1.077713 1.892189 -1.018113 -1.919579 0.9635511 -2.660844 0.1976 -2.98021 0.1786272 -1.418299 -0.9364938 -1.912306 0.5266402 -2.663886 1.018615 -1.519874 1.329593 -0.1239647 -0.9129469 0.9093247 -2.163965 -0.4077343 -0.470235 -0.336882 -0.6395249 0.5457527 -0.5518298 0.05080149 -0.1779043 -0.3011147 -3.41066 16.02655 1 -156
3.283982 -0.3498282 0.4538597 -0.4664466 -0.4160842 2.17018 -1.163944 1.736332 0.9447973 0.3024106 -1.472749 2.403833 -1.44548 -1.629985 0.889039 -2.392502 0.1497965 -2.909978 0.6152173 -1.81532 -0.9108413 -1.953863 0.5669107 -2.795612 1.206641 -0.9949334 1.34181 -0.2153088 -0.9920973 0.7610045 -2.076235 -0.4898035 -0.5287651 -0.6444702 -0.7657164 0.1645302 -0.6400985 -0.08729801 -0.3468632 -0.7118587 -2.536329 13.762 1 -152
3.648311 -0.3306603 0.4394792 -0.4566977 -0.4276217 2.007994 -1.057358 1.66096 1.516884 0.2555225 -1.8428 3.02643 -1.825148 -1.425875 0.7522968 -2.167387 0.03170956 -2.754161 1.165775 -2.036688 -0.9136401 -1.891685 0.607663 -2.757607 1.416168 -0.3888364 1.423977 -0.2353642 -0.9869312 0.8707923 -1.860033 -0.3050689 -0.5248082 -0.7227536 -0.8077396 0.0407565 -0.6529674 0.01739914 -0.4173966 -0.9268932 -1.74679 10.58083 1 -148
3.859484 -0.3277908 0.4131953 -0.4516816 -0.4842777 1.561467 -1.028772 1.624331 1.759463 0.07772081 -1.821369 3.228703 -1.795664 -1.329035 0.6193175 -1.884473 -0.2935517 -2.491901 1.188353 -1.753293 -1.024042 -1.632956 0.3328569 -2.549938 1.145503 0.101424 1.517994 -0.3403461 -0.8549576 0.7546559 -1.63559 -0.2949134 -0.5912672 -0.6365381 -0.82555 -0.03825945 -0.672235 0.04905124 -0.4448627 -0.8538259 -1.420885 9.24434 1 -144
4.363408 -0.2321422 0.3989092 -0.3452774 -0.4234503 1.138161 -0.9338862 1.69454 1.579796 -0.03812429 -1.39776 2.931705 -1.365522 -1.362101 0.4921598 -1.580271 -0.7173346 -2.202883 0.7001804 -1.17896 -1.206536 -1.340435 -0.2147641 -2.328594 0.565397 0.130706 1.549054 -0.5378214 -0.7062878 0.3883541 -1.555538 -0.5352962 -0.7601618 -0.581156 -0.8889158 -0.1534221 -0.7687961 -0.08237705 -0.5190004 -0.6283901 -1.687321 10.34014 1 -140
5.17487 -0.08965025 0.4011204 -0.1827346 -0.2670363 0.9830753 -0.7547119 1.936103 1.22758 0.1711309 -0.9194537 2.548852 -0.8768329 -1.458634 0.3167956 -1.431132 -0.9185129 -2.039878 0.2000598 -0.9987651 -1.295123 -1.241962 -0.6737834 -2.261236 0.144363 -0.4593033 1.492594 -0.7089844 -0.6741471 0.07692757 -1.71853 -0.7998912 -0.9635552 -0.6708482 -1.028349 -0.2304714 -0.9484022 -0.1805928 -0.6839066 -0.5163279 -2.303021 12.62229 1 -136
5.743902 -0.005769556 0.3665436 -0.07598166 -0.2114957 0.8926577 -0.6108276 2.263576 1.01706 0.7614853 -0.6136644 2.230125 -0.5801215 -1.468924 0.1498891 -1.489065 -0.7032896 -1.961904 0.0757263 -1.267227 -1.141986 -1.284943 -0.7937112 -2.250933 0.1883419 -1.218176 1.450029 -0.7620832 -0.6869664 -0.04552613 -1.937227 -0.8918996 -1.042106 -0.814909 -1.12646 -0.3151323 -1.075644 -0.1227587 -0.8015068 -0.5972944 -2.773694 13.53185 1 -132
5.500517 -0.04105079 0.2203828 -0.09889864 -0.4048768 0.4775712 -0.6383873 2.406039 0.9856102 1.268441 -0.349473 1.756029 -0.3649167 -1.338207 0.1030528 -1.633433 -0.3184894 -1.813556 0.1567485 -1.292908 -0.8528427 -1.221867 -0.6839648 -2.062972 0.5479042 -1.608907 1.533836 -0.7315417 -0.5946982 -0.1034058 -1.966014 -0.8527407 -0.9612572 -0.8287529 -1.090223 -0.4422482 -1.050412 -0.01159289 -0.7617621 -0.6659482 -2.759934 12.58913 1 -128
4.58045 -0.2242803 0.08352976 -0.2881951 -0.7568459 -0.1149547 -0.8689978 2.299592 0.9771538 1.224738 -0.01114379 1.214123 -0.06577139 -1.157437 0.1852911 -1.781925 -0.138686 -1.632142 0.05530675 -0.8134555 -0.6731762 -0.9920753 -0.5903494 -1.707075 0.724981 -1.602146 1.661442 -0.7115142 -0.3944793 -0.2481537 -1.831441 -0.8532401 -0.8635498 -0.6721765 -0.9810978 -0.4597596 -0.934544 -0.006168929 -0.644421 -0.5946675 -2.441873 12.04908 1 -124
3.731405 -0.3893494 -0.01741368 -0.4610543 -1.042161 -0.4203641 -1.070924 2.057256 0.8920566 0.7435194 0.3323412 0.7195171 0.2992915 -1.031492 0.2557841 -1.936347 -0.2039766 -1.521937 -0.3567066 -0.1560792 -0.6762876 -0.7701954 -0.6257734 -1.386138 0.5232449 -1.431757 1.690277 -0.7345167 -0.2193434 -0.4264842 -1.689709 -0.9536512 -0.8687294 -0.5267389 -0.9196361 -0.2912183 -0.8816276 -0.1447545 -0.6150312 -0.5233719 -2.140228 13.18826 1 -120
3.490104 -0.2817805 -0.249116 -0.3403298 -1.161767 -0.3996491 -0.988209 1.818076 0.7704436 0.2408658 0.5756522 0.369127 0.6001464 -1.018365 0.1757295 -2.095032 -0.2828427 -1.446158 -0.7329043 0.3488382 -0.7427202 -0.7053602 -0.7277992 -1.201166 0.312203 -1.193245 1.629829 -0.756798 -0.180462 -0.4562132 -1.592162 -1.023772 -0.9723679 -0.5511756 -0.948745 -0.07930847 -0.9598877 -0.3097832 -0.7398662 -0.6026301 -2.022121 14.43067 1 -116
3.546079 0.05565444 -0.4589181 0.01732609 -1.170636 -0.233299 -0.6899166 1.824086 0.6790786 0.06341274 0.6784954 0.5688371 0.7184586 -1.091307 -0.0009982478 -2.183194 -0.1722144 -1.319754 -0.5452809 0.523058 -0.733721 -0.7604402 -0.7296429 -1.079117 0.3152493 -0.8811217 1.572643 -0.6930542 -0.2117874 -0.32009 -1.488507 -0.8615789 -1.040063 -0.6434903 -0.9536625 0.05838494 -1.018949 -0.322383 -0.8567064 -0.7465645 -2.203881 12.78944 1 -112
3.164785 0.2933375 -0.3541133 0.2630553 -1.186653 0.1310593 -0.4427967 2.075068 0.5892406 0.2265094 0.6117121 1.353661 0.6097984 -1.161604 -0.1834432 -2.099789 0.05452733 -1.12026 0.2294049 0.2491662 -0.6248472 -0.7340255 -0.5230669 -0.937537 0.3734348 -0.5684981 1.607214 -0.4683985 -0.1279043 -0.1085505 -1.325266 -0.3623938 -0.9023029 -0.5040188 -0.7829652 0.2467359 -0.8577951 -0.06851947 -0.7270813 -0.6587824 -2.572928 7.324817 1 -108
2.329307 0.2034747 -0.02231591 0.170441 -1.35077 0.7026276 -0.4278354 2.159123 0.5405601 0.3844077 0.3542058 2.138839 0.3215449 -1.239592 -0.4259183 -1.89773 0.05931875 -0.9237551 1.037495 -0.3792458 -0.5286508 -0.5126557 -0.2624437 -0.7677255 0.3653331 -0.3270015 1.732986 -0.1521318 0.1483198 0.1232699 -1.074737 0.3217297 -0.5163942 -0.04099874 -0.4121666 0.6025369 -0.4650286 0.3653409 -0.3179623 -0.1394884 -2.740342 0.8640355 1 -104
1.806948 -0.08321034 0.3113307 -0.1296759 -1.63124 1.156832 -0.6024061 1.916833 0.6696808 0.3209276 0.09462739 2.452125 0.08391302 -1.374629 -0.7462544 -1.743856 -0.2599943 -0.8006136 1.368325 -0.8168953 -0.5422115 -0.2726315 -0.227886 -0.5621856 0.2071564 -0.1039683 1.767979 0.06066005 0.4684778 0.2938646 -0.7671493 0.8732245 -0.07474173 0.3870259 -0.008013829 0.9997622 -0.0543042 0.7380909 0.1335474 0.5490893 -2.527313 -3.331288 1 -100
2.102645 -0.2693028 0.5363244 -0.3322819 -1.784762 1.172172 -0.7477696 1.706043 0.9066942 0.2339841 0.06808948 2.333714 0.1002893 -1.535978 -1.048199 -1.727115 -0.5547463 -0.7209386 1.288164 -0.615591 -0.5967539 -0.2427968 -0.3986073 -0.3660881 0.001013669 0.1042508 1.558522 0.1012663 0.5753272 0.4251395 -0.555887 1.149239 0.1367697 0.4426852 0.1855563 1.257799 0.1172903 0.9215355 0.3511215 0.8840923 -2.295082 -4.867809 1 -96
2.781214 -0.2627579 0.5141296 -0.3254058 -1.677063 0.8731222 -0.7303593 1.704592 1.045575 0.4515455 0.1872407 1.978139 0.2300459 -1.699758 -1.238405 -1.834011 -0.5592838 -0.6798536 1.086644 0.09619608 -0.6234722 -0.4499998 -0.5319655 -0.2702509 -0.0363069 0.1849242 1.165331 0.02578341 0.38021 0.578019 -0.5492048 1.174662 0.09946533 0.2260737 0.146469 1.287035 0.05790601 0.9593673 0.3070596 0.7361472 -2.363733 -4.445069 1 -92
2.760904 -0.2262137 0.2629348 -0.2673054 -1.420526 0.6427605 -0.6426119 1.603089 1.052996 0.9261467 0.2501545 1.317732 0.2852049 -1.81594 -1.203803 -1.945068 -0.4062218 -0.6938803 0.7001464 1.025356 -0.6977137 -0.7051178 -0.5869884 -0.2239186 -0.04749542 0.2048335 0.7273646 -0.1198545 0.103366 0.6175725 -0.6207544 0.9941916 0.04754408 0.04772712 0.07153015 1.136132 0.01114846 0.9395819 0.2087048 0.5102303 -2.385684 -2.438266 1 -88
1.622449 -0.3009235 0.08709726 -0.324703 -1.191812 0.6410527 -0.6440721 1.223146 0.9051901 1.204152 0.2428839 0.3368927 0.2833424 -1.76725 -0.9105185 -1.915707 -0.2992881 -0.6682922 0.1768783 1.772788 -0.8006207 -0.7481937 -0.575632 -0.1147281 -0.08326449 0.286321 0.3933985 -0.1816807 0.01936203 0.5469463 -0.6073847 0.8485644 0.1175422 0.1309279 0.1087475 1.052349 0.1037184 0.9635838 0.2505684 0.6135464 -2.077134 -0.720327 1 -84
0.4814111 -0.5040335 0.147514 -0.5364389 -1.037803 0.6888694 -0.8139532 0.8865383 0.5045447 1.110757 0.1324782 -0.5123903 0.160559 -1.543466 -0.5466195 -1.791407 -0.2243205 -0.557924 -0.1500553 1.676747 -0.7762139 -0.5812755 -0.3989523 -0.05305474 0.05975857 0.1998096 0.2340156 -0.02576841 0.1190734 0.5718372 -0.5231594 0.9001009 0.2689312 0.4145677 0.2524452 1.159226 0.2704909 1.069294 0.4410713 0.9561245 -1.874796 -0.2544618 1 -80
0.5688846 -0.7216367 0.1826255 -0.7673545 -0.935606 0.5143857 -1.047166 0.8695278 0.01816351 0.9080228 -0.1328282 -0.7486494 -0.1542496 -1.314269 -0.3620739 -1.753564 -0.08842242 -0.4938186 -0.1825953 0.691984 -0.6191302 -0.4858122 -0.1042278 -0.1885446 0.3320646 -0.1905279 0.1209382 0.1816123 0.1871717 0.703075 -0.4171312 0.9594958 0.4089544 0.5820393 0.3887175 1.240112 0.4093228 1.198637 0.6396894 1.152707 -2.109824 0.5593032 1 -76
1.308479 -0.7899699 -0.08525597 -0.8274927 -0.9382648 0.0362571 -1.170337 0.9850817 -0.2267413 0.7051353 -0.3441819 -0.3543047 -0.423438 -1.21269 -0.4234557 -1.864535 0.05422039 -0.5492429 0.0771259 -0.3372957 -0.4521611 -0.5872793 0.2085139 -0.4044399 0.725948 -0.5567507 -0.04634193 0.2251253 0.124729 0.8839962 -0.2782239 0.9545166 0.4772791 0.4914294 0.4268099 1.183287 0.4679085 1.274743 0.7265635 1.066831 -2.435544 1.903874 1 -72
1.27298 -0.7794666 -0.4252821 -0.806871 -0.9924931 -0.5462659 -1.196963 0.9398253 -0.1870879 0.3646103 -0.3227377 0.2604411 -0.421493 -1.126761 -0.5273594 -1.941013 0.08076603 -0.623375 0.4685451 -0.9596897 -0.329222 -0.683911 0.4978945 -0.5360335 1.193513 -0.6895851 -0.1760998 0.1425895 0.02731581 1.03336 -0.1472408 0.9192473 0.491789 0.3370292 0.3913224 1.087845 0.4697719 1.201116 0.696106 0.8602485 -2.334819 3.017432 1 -68
0.1997871 -0.8195 -0.3878478 -0.8648258 -0.9011514 -0.8711242 -1.182442 0.666149 -0.1290779 -0.09514151 -0.2703656 0.4608386 -0.3452086 -0.8408321 -0.3951411 -1.693294 0.04409344 -0.5544575 0.5385441 -1.366189 -0.2230382 -0.5217264 0.6428385 -0.4963897 1.299255 -0.6318368 -0.1576116 0.1011567 0.05278051 0.9383134 -0.01354142 0.7545127 0.5433635 0.3374938 0.4205292 0.9007261 0.5140149 0.9676502 0.6644445 0.7719765 -1.70247 3.644795 1 -64
-1.227633 -0.8284655 -0.01003879 -0.9070269 -0.6701167 -0.8009313 -1.073828 0.1658361 -0.178552 -0.5085598 -0.4032305 -0.004030618 -0.4451868 -0.3738828 -0.04279898 -1.127373 0.1193898 -0.284214 0.1491058 -1.563774 -0.06025678 -0.1137609 0.575954 -0.2138467 0.8405401 -0.3481064 -0.01282741 0.1814011 0.233311 0.5750537 0.2300007 0.491171 0.6867094 0.4754642 0.5888426 0.5616695 0.6598666 0.7298452 0.7260868 0.8846474 -0.7264993 3.050092 1 -60
-2.217301 -0.6530467 0.2582734 -0.7404144 -0.4380505 -0.4935336 -0.8116909 -0.4482179 -0.1686839 -0.7654717 -0.6200119 -0.7177527 -0.622515 0.06178304 0.257514 -0.5648149 0.3420201 0.03280123 -0.3761914 -1.42409 0.165678 0.2198819 0.3915394 0.1810922 0.1976815 0.09913561 0.08876233 0.2794696 0.3590328 0.1742174 0.5097177 0.2291956 0.7879614 0.5084409 0.7082274 0.1688923 0.7552031 0.549858 0.7507406 0.9310231 0.3593248 1.694313 1 -56
-2.260943 -0.205283 0.2324563 -0.2675712 -0.1283662 -0.05894297 -0.392913 -0.81467 -0.09846728 -0.6295321 -0.6846775 -1.230141 -0.6656656 0.3933104 0.4395211 -0.1616492 0.620977 0.2353799 -0.6670274 -0.9764322 0.3589687 0.2662635 0.2350279 0.4344064 -0.1775381 0.4822033 -0.02231038 0.2551513 0.2539833 -0.1148677 0.6208339 -0.04703353 0.6585911 0.2689892 0.5790317 -0.268461 0.6025723 0.2817371 0.5541885 0.6140209 1.113741 0.3711596 1 -52
-1.59239 0.3728192 0.1374977 0.3411305 0.3427756 0.366492 0.07771573 -0.8696249 -0.1622126 -0.002919517 -0.4089365 -1.441481 -0.4165555 0.6634223 0.6652576 0.2201893 0.8175704 0.3575026 -0.6322026 -0.2420756 0.4650243 0.229559 0.1381995 0.4994034 -0.2933529 0.6261381 -0.3047193 0.0993892 0.03478602 -0.3546796 0.5219786 -0.3362792 0.3311605 -0.1104937 0.2746948 -0.7528448 0.2570738 -0.1467048 0.170346 0.06654346 1.356757 -1.365945 1 -48
-0.9744196 0.7503796 0.09951131 0.7388039 0.7764332 0.5463698 0.435693 -1.015319 -0.3721932 0.5754045 0.1671374 -1.361047 0.1392386 0.8765627 0.9376215 0.6725516 0.7668167 0.5052276 -0.4928981 0.6943509 0.473839 0.3363226 0.02025623 0.493372 -0.4312176 0.477446 -0.5593241 -0.1307795 -0.1113975 -0.6305603 0.341999 -0.6095051 0.01600332 -0.3886428 -0.004204815 -1.153135 -0.04552067 -0.6243983 -0.1926484 -0.3346408 1.516293 -2.925782 1 -44
-0.7890822 0.8436399 0.008971941 0.8511328 1.010869 0.4655174 0.6793811 -1.349826 -0.5805549 0.5670975 0.703561 -1.071929 0.7021093 1.038472 1.096954 1.10439 0.4939152 0.6778579 -0.4600016 1.359765 0.3816622 0.4628795 -0.1032016 0.4724355 -0.6158478 0.16309 -0.6770251 -0.3679791 -0.1701055 -0.9117922 0.1956231 -0.8946289 -0.1742039 -0.5227748 -0.1675148 -1.418627 -0.2001432 -1.029777 -0.3978029 -0.5148648 1.809684 -2.671432 1 -40
-0.528134 0.9124859 -0.1017441 0.9405709 1.200719 0.3693231 0.9914652 -1.415427 -0.6878139 0.2028612 0.9040749 -0.8060579 0.9329777 1.147894 1.083662 1.438789 0.2432924 0.7678104 -0.5237375 1.290957 0.261879 0.4082138 -0.1521736 0.3931794 -0.6448593 -0.1253788 -0.7220793 -0.5424855 -0.2630185 -1.076387 0.05264793 -1.188793 -0.3819984 -0.6715901 -0.3393434 -1.598868 -0.3817309 -1.317694 -0.5680506 -0.765242 1.846084 -0.5862378 1 -36
0.07269087 1.097803 -0.1140215 1.142942 1.469979 0.3601794 1.389732 -0.9735036 -0.6758738 0.002929807 0.7653496 -0.6832101 0.802013 1.206492 0.9794337 1.682428 0.171802 0.7443089 -0.5430515 0.7489601 0.2184781 0.2297719 -0.1275376 0.2516127 -0.4703966 -0.2662535 -0.7628235 -0.6093774 -0.4300913 -1.036556 -0.06734573 -1.376465 -0.7104199 -0.8765935 -0.620785 -1.669589 -0.709378 -1.481294 -0.8194872 -1.187404 1.44557 1.428977 1 -32
0.2464284 1.197372 -0.1322944 1.26333 1.644278 0.2593364 1.620335 -0.4847718 -0.5869858 0.02086089 0.4090513 -0.5945 0.4457081 1.263732 0.8760067 1.865911 0.2029081 0.6899911 -0.484179 0.3003741 0.2626825 0.1768182 -0.08648348 0.1571429 -0.3553506 -0.1796856 -0.7041109 -0.5486587 -0.5019075 -0.9185099 0.01625434 -1.362313 -0.9012602 -0.948872 -0.7822157 -1.550891 -0.897377 -1.501211 -0.948529 -1.451795 1.089342 1.914006 1 -28
-0.3638837 0.9665152 -0.265783 1.062005 1.559139 -0.05217316 1.497624 -0.4575058 -0.5155192 -0.08271361 -0.03039234 -0.4164378 0.01301159 1.341995 0.7607329 2.039193 0.1404964 0.632867 -0.4719534 0.08589468 0.3307873 0.3598184 -0.08335366 0.1598388 -0.5132927 0.01016253 -0.4809817 -0.3657133 -0.3466369 -0.9041366 0.2967878 -1.233953 -0.7234322 -0.77446 -0.6113159 -1.282933 -0.6700733 -1.406348 -0.7631518 -1.307812 1.224985 1.642045 1 -24
-1.048653 0.4543917 -0.3711319 0.5726798 1.3224 -0.5387644 1.136943 -0.7250688 -0.5035558 -0.4699491 -0.3316716 -0.1498838 -0.2692855 1.409677 0.5805072 2.210476 -0.08449683 0.5504136 -0.5117407 -0.1539638 0.4117232 0.6212263 -0.08600145 0.1533006 -0.7193649 -0.008176457 -0.2381832 -0.08025258 -0.1168478 -0.885821 0.4724974 -1.083457 -0.4110146 -0.444061 -0.3332571 -0.9482962 -0.2898024 -1.244728 -0.4606445 -0.9340382 1.636742 1.90919 1 -20
-1.180796 -0.03086107 -0.3119979 0.08633493 1.151962 -1.108374 0.8210947 -0.789281 -0.4939938 -0.8812742 -0.3867341 0.147665 -0.3266603 1.437147 0.3578013 2.307923 -0.2828662 0.4469967 -0.407519 -0.6082062 0.553579 0.7382942 0.0101154 0.04802693 -0.6141808 -0.2825016 -0.1147034 0.2415552 -0.05391416 -0.616956 0.3675919 -0.831943 -0.3107922 -0.1200376 -0.2501444 -0.5290353 -0.1686551 -0.9818936 -0.3519829 -0.7123048 1.78632 2.245316 1 -16
-0.9242357 -0.2196184 -0.2031291 -0.123744 1.096297 -1.485697 0.7133138 -0.7196842 -0.3129123 -1.129383 -0.275016 0.3874119 -0.2605349 1.39125 0.08653779 2.266201 -0.3320298 0.3483672 -0.09513421 -0.8669617 0.6963123 0.6242362 0.1954668 -0.05754262 -0.1955868 -0.3372491 -0.1428523 0.4395274 -0.1867098 -0.1552292 0.2112116 -0.497428 -0.4089613 0.04809863 -0.3540331 -0.1773645 -0.2944392 -0.687137 -0.482031 -0.8539673 1.836537 1.437888 1 -12
-0.9112148 -0.08868948 -0.1829093 -0.01854546 1.069834 -1.383068 0.7781581 -1.004946 0.1692782 -1.380768 -0.003211834 0.4027126 -0.04485435 1.266464 -0.2262814 2.147899 -0.3969801 0.3073349 0.1533964 -0.3646906 0.6757324 0.4121118 0.2990268 0.0180933 0.16474 0.1639133 -0.3272046 0.4056527 -0.3478003 0.1551664 0.2752155 -0.3131663 -0.4876559 0.07213319 -0.4950283 -0.1719574 -0.4452256 -0.5889035 -0.7146841 -1.178246 2.464733 -0.3255402 1 -8
-1.206133 0.1875728 -0.1872308 0.2407271 1.102567 -0.7537954 0.9150565 -1.598814 0.608104 -1.648725 0.289348 0.0141437 0.2172338 1.107256 -0.4506389 2.107458 -0.6096175 0.329751 -0.008589614 0.5524828 0.4644479 0.3071073 0.2481779 0.2251188 0.1763835 0.7177929 -0.6071112 0.2322095 -0.4104967 0.1089343 0.4346652 -0.4731582 -0.4875833 0.08740013 -0.5770668 -0.51283 -0.5396382 -0.7849524 -0.9212263 -1.356914 3.346785 -0.8862317 1 -4
-1.102748 0.4449945 -0.1756307 0.5061389 1.268127 0.1457376 1.047992 -1.960456 0.4783551 -1.658123 0.2512194 -0.555608 0.1893127 0.9589081 -0.5607849 2.161743 -0.8060759 0.3652095 -0.3930397 0.8637213 0.241173 0.3708086 0.2441464 0.3083088 0.03953822 0.7444386 -0.8224926 0.1284821 -0.3896501 -0.08669194 0.4310811 -0.797723 -0.462003 0.1381494 -0.5590842 -0.8884897 -0.5487298 -1.043791 -1.002853 -1.325073 3.439419 0.3719912 1 0
-0.4747246 0.5872011 -0.2553936 0.6919041 1.489883 0.7165963 1.143474 -1.81335 -0.06932053 -1.281615 -0.1257329 -0.5740017 -0.1652015 0.838505 -0.6837814 2.148321 -0.7163977 0.3998603 -0.2780293 0.3182483 0.1899062 0.5023044 0.4952287 0.1950543 0.1661653 0.377853 -0.8631315 0.2435877 -0.3451713 -0.06147753 0.2978735 -0.8129173 -0.3901058 0.1932095 -0.4624358 -0.9722494 -0.4503303 -1.022663 -0.9270403 -1.255539 2.643841 0.3616496 1 4
-0.005132729 0.5327795 -0.4700383 0.6996756 1.561527 0.6186855 1.157782 -1.396225 -0.4904903 -0.7175413 -0.4593805 0.1523076 -0.4968893 0.6931125 -0.8784416 1.962395 -0.3796732 0.4124354 0.5120895 -0.2529381 0.2940901 0.5514657 0.9212947 0.05078327 0.6531257 -0.02060075 -0.8225039 0.506958 -0.3073955 0.250084 0.2138786 -0.4245235 -0.2535874 0.2577577 -0.3406179 -0.7681478 -0.2866377 -0.7198291 -0.7506344 -1.278781 1.671085 -2.153298 1 8
0.1018723 0.2563557 -0.810263 0.4752617 1.277431 0.1364744 1.01428 -1.16298 -0.6440545 -0.2924231 -0.5377795 0.6952778 -0.5771021 0.4536646 -1.121138 1.649256 -0.1621543 0.3715152 1.214261 -0.2200578 0.3805068 0.5359237 1.274191 0.03602597 1.214005 -0.1912562 -0.7965794 0.7170308 -0.2308468 0.6245129 0.2726524 0.01245492 -0.06155519 0.4082408 -0.1611868 -0.4567683 -0.06755269 -0.4139207 -0.5185429 -1.289964 1.016819 -4.421875 1 12
0.2439307 -0.1587554 -1.225137 0.08624687 0.6705396 -0.44619 0.7263525 -1.333759 -0.661465 -0.2024816 -0.5064505 0.159054 -0.5307822 0.1513069 -1.416029 1.309113 -0.2565024 0.3402685 1.155465 0.1849263 0.3616424 0.6387517 1.433103 0.2171239 1.495855 0.04637238 -0.6850036 0.8276846 -0.02248342 0.8536039 0.5323405 0.2959417 0.2473363 0.6837558 0.1706625 -0.08119032 0.2613909 -0.2218431 -0.2081576 -1.042452 0.8507359 -4.944803 1 16
0.461532 -0.6595862 -1.559978 -0.4175683 -0.02540663 -1.211494 0.3699603 -1.816214 -0.6659151 -0.3197271 -0.5060112 -1.291364 -0.5189634 -0.1015753 -1.773229 1.010757 -0.454275 0.4451884 0.4491552 0.4831666 0.3365394 0.9238682 1.472108 0.5934842 1.403072 0.4506485 -0.388432 0.9492748 0.3537683 0.8563012 1.003329 0.461381 0.7405724 0.9909093 0.6882145 0.2877567 0.7505292 -0.01921883 0.2155717 -0.4772275 1.109559 -4.600498 1 20
0.4941996 -1.226775 -1.710304 -1.009058 -0.6982198 -2.280276 0.002928764 -2.371106 -0.6968046 -0.3291084 -0.3856356 -2.70014 -0.4173011 -0.2388065 -2.123038 0.7343798 -0.4721374 0.7042512 -0.2962636 0.6324357 0.4411207 1.242305 1.465037 1.098911 1.052452 0.6368059 0.03184301 1.132232 0.8271562 0.6597582 1.581296 0.5861181 1.351713 1.180728 1.309539 0.491798 1.345214 0.3214196 0.7592741 0.1627112 1.494854 -4.785479 1 24
0.3619024 -1.668934 -1.658217 -1.480753 -1.325277 -3.38559 -0.2689016 -2.665793 -0.6810084 -0.2090385 -0.007659154 -3.173217 -0.04788388 -0.3492636 -2.369643 0.4225852 -0.2860763 0.9721259 -0.5492724 0.9072834 0.64048 1.423082 1.411764 1.611245 0.5501511 0.7388334 0.4390784 1.336213 1.244833 0.4157152 2.122918 0.7782948 1.894302 1.202089 1.872688 0.5331569 1.859116 0.7490237 1.336477 0.5972833 1.618655 -6.91272 1 28
0.09558196 -1.875994 -1.499461 -1.705334 -1.81764 -4.021987 -0.4098934 -2.669582 -0.6082056 -0.2432763 0.3916872 -2.753406 0.4040532 -0.5668045 -2.52661 0.1110286 -0.143025 1.104962 -0.4168386 1.239329 0.7387543 1.466656 1.281277 2.016624 -0.03035295 1.001526 0.696253 1.477124 1.513674 0.3102801 2.559257 1.040371 2.280356 1.182285 2.29071 0.6195115 2.207991 1.060383 1.80255 0.8377798 1.411258 -9.852883 1 32
-0.336053 -1.929373 -1.464551 -1.754126 -2.128487 -3.975495 -0.4974855 -2.69929 -0.5206957 -0.5956802 0.4560531 -2.132895 0.5314728 -0.8433092 -2.658193 -0.06020933 -0.2587901 1.100956 -0.3361223 1.212552 0.6734762 1.516737 1.030246 2.265932 -0.6029832 1.411855 0.7807435 1.512643 1.710968 0.335064 2.927925 1.284535 2.610438 1.267524 2.615896 0.8924355 2.505259 1.140025 2.144847 1.131585 1.257702 -11.52309 1 36
-0.764378 -1.831152 -1.665301 -1.634052 -2.319884 -3.460603 -0.5549297 -2.871704 -0.466933 -1.160524 0.1510834 -1.606689 0.2450534 -1.035569 -2.753129 -0.05182133 -0.5482177 1.075558 -0.3218172 0.7488003 0.5923582 1.644835 0.7331762 2.389014 -1.047216 1.912321 0.8243023 1.500849 1.935943 0.3409193 3.301345 1.491562 2.966002 1.405852 2.912493 1.211345 2.839592 1.095405 2.452293 1.506636 1.370081 -12.55291 1 40
-1.132557 -1.622623 -1.95026 -1.406909 -2.435509 -2.844229 -0.5622494 -3.093463 -0.5361996 -1.700572 -0.1751257 -1.140653 -0.08465292 -1.176062 -2.830818 -0.04625551 -0.8062893 1.096317 -0.247876 0.26758 0.5626816 1.718403 0.4912934 2.454141 -1.259542 2.292223 0.8814806 1.457958 2.126799 0.2721874 3.678969 1.602084 3.314581 1.396393 3.199841 1.320551 3.182848 1.062923 2.748835 1.669917 1.450926 -13.19711 1 44
-1.544381 -1.438658 -2.050122 -1.238457 -2.456671 -2.35552 -0.5303776 -3.238361 -0.6847837 -2.075241 -0.1988506 -0.8771916 -0.1399125 -1.37042 -2.961895 -0.1740988 -0.9924583 1.127706 -0.209998 0.1435315 0.5162567 1.610075 0.2935927 2.486369 -1.253581 2.436177 0.8945885 1.387494 2.197804 0.1903261 3.993044 1.568476 3.581726 1.205932 3.44716 1.156698 3.446715 1.088177 2.9945 1.512996 1.242556 -12.7309 1 48
-1.79682 -1.348365 -1.872462 -1.201065 -2.422776 -2.095989 -0.5225604 -3.213398 -0.7366976 -2.294427 -0.02866914 -0.9081433 -0.02489094 -1.559829 -3.103049 -0.3261291 -1.1817 1.167276 -0.2434516 0.3873282 0.4279763 1.438108 0.1773459 2.476749 -1.115128 2.478677 0.8779164 1.366205 2.21608 0.1054737 4.168061 1.433814 3.686115 1.031582 3.563737 0.8163593 3.538213 1.131727 3.125982 1.302499 0.9503894 -11.87216 1 52
-1.447533 -1.350018 -1.667727 -1.241686 -2.395258 -2.032063 -0.5829585 -3.105751 -0.6688252 -2.318956 0.04394145 -1.023098 0.03391682 -1.632001 -3.155056 -0.3807095 -1.387186 1.20219 -0.2795545 0.829304 0.3262553 1.360723 0.1790237 2.431672 -0.9535942 2.333257 0.8729833 1.395584 2.237603 -0.07777558 4.112929 1.185467 3.601537 0.9731812 3.487022 0.3962298 3.440827 1.057021 3.087293 1.265595 0.8569095 -11.0108 1 56
-0.407648 -1.417592 -1.665936 -1.29627 -2.346499 -1.966171 -0.6443972 -3.058795 -0.6461391 -2.049616 -0.007545514 -1.11753 0.01020627 -1.585204 -3.105302 -0.3527855 -1.502056 1.127003 -0.3114849 1.257277 0.2398789 1.331615 0.2628378 2.3272 -0.8226606 1.865394 0.8599024 1.41911 2.164767 -0.2747991 3.824826 0.8880716 3.393245 0.9518064 3.256178 0.05665108 3.223112 0.8515823 2.902438 1.33405 0.9191988 -9.88794 1 60
0.8698115 -1.463986 -1.776083 -1.309473 -2.235097 -1.842743 -0.5792006 -2.960991 -0.7743641 -1.599123 -0.07171247 -1.205239 -0.03886921 -1.488604 -2.982732 -0.3126144 -1.41738 0.8950768 -0.2485597 1.379819 0.2217341 1.220578 0.4654334 2.111991 -0.6081647 1.404918 0.8035343 1.449157 1.914793 -0.2138269 3.494938 0.7613043 3.158587 0.8855706 3.006918 -0.05611324 2.978771 0.7018099 2.675183 1.271966 0.8164434 -9.303412 1 64
1.554183 -1.374404 -1.906543 -1.201902 -2.102744 -1.778603 -0.3546607 -2.643635 -0.9966194 -1.187138 -0.06857092 -1.140651 -0.05221478 -1.358461 -2.804705 -0.2790179 -1.166605 0.6163151 0.00202348 1.151983 0.2949614 1.018728 0.7592022 1.818557 -0.2611809 1.29364 0.7373917 1.478294 1.555545 0.1006415 3.275977 0.8306602 2.926396 0.7444606 2.82542 -0.006564671 2.767264 0.6725063 2.462541 0.9403492 0.3985283 -9.54136 1 68
1.154014 -1.190496 -2.099119 -1.004475 -2.049334 -1.822118 -0.1411909 -2.34494 -1.197329 -0.860606 0.1319243 -1.08823 0.1161889 -1.143024 -2.589743 -0.1822587 -0.9114613 0.4462826 0.1379544 1.016093 0.3807076 0.8817068 0.9278017 1.57948 -0.05801211 1.297582 0.7785318 1.429451 1.241927 0.316164 3.117337 0.8304374 2.694595 0.5653991 2.668963 0.01278533 2.600337 0.62036 2.269164 0.5271493 0.08952609 -9.149537 1 72
0.4461469 -0.9899143 -2.364712 -0.7757422 -2.079134 -1.933082 -0.06766226 -2.345555 -1.308958 -0.6894668 0.4892335 -1.259156 0.457165 -0.875288 -2.350073 0.04077491 -0.8202329 0.4184904 -0.146631 1.174978 0.4063089 0.9275324 0.8102589 1.435185 -0.2747419 1.103167 0.9492979 1.255232 1.055103 0.1591679 2.907188 0.5567343 2.485328 0.4082378 2.487518 -0.1187854 2.449484 0.4159816 2.110185 0.3312235 0.2366345 -7.117378 1 76
0.5479741 -0.703137 -2.650357 -0.4441423 -2.031063 -1.915954 -0.001291692 -2.433884 -1.369911 -0.7129021 0.6799846 -1.208886 0.6659994 -0.6634619 -2.10626 0.3430435 -0.8767312 0.4347695 -0.4975111 1.14606 0.3985826 1.076523 0.5138045 1.265833 -0.7046707 0.7927969 1.116821 1.007708 0.9189562 -0.2446593 2.601503 0.133235 2.268703 0.2532494 2.256529 -0.3639097 2.262256 0.09560499 1.947113 0.3111574 0.4812312 -4.590699 1 80
1.398337 -0.3298297 -2.774494 -0.03327357 -1.8129 -1.583243 0.1981707 -2.321058 -1.407497 -0.7362013 0.5589954 -0.7129306 0.5896326 -0.5129802 -1.899952 0.5914675 -0.8621819 0.4286687 -0.4605182 0.6415866 0.4175226 1.164952 0.2799399 1.026782 -0.9000272 0.6029148 1.209302 0.8093044 0.7413073 -0.5777071 2.287214 -0.1838447 2.005451 0.05126947 1.971727 -0.6522412 2.018816 -0.1671188 1.726419 0.1864854 0.4984469 -3.476653 1 84
2.306612 -0.06778798 -2.665173 0.2353967 -1.565086 -1.154618 0.4632528 -2.177191 -1.333769 -0.6900744 0.3360068 -0.3780134 0.4167472 -0.3515508 -1.752489 0.7168427 -0.6900346 0.4277778 -0.2984124 0.1252914 0.486665 1.118233 0.1648625 0.8151621 -0.8454294 0.589602 1.26537 0.7052798 0.5548449 -0.7667254 2.054149 -0.3613966 1.74648 -0.1614849 1.694537 -0.9311419 1.764902 -0.2471914 1.486969 -0.1086658 0.5975785 -3.526412 1 88
2.816913 -0.05709668 -2.527474 0.2318707 -1.443119 -1.015027 0.6178216 -2.290452 -1.13489 -0.8146385 0.1777452 -0.5607945 0.2816694 -0.1321039 -1.646142 0.7948096 -0.5693481 0.4859731 -0.4813653 0.09674239 0.5891269 1.078887 0.02722405 0.7363056 -0.9482337 0.6017337 1.380605 0.6427914 0.511358 -0.9205034 1.890415 -0.492281 1.584097 -0.2635246 1.51447 -1.059014 1.583019 -0.1905398 1.316292 -0.3429666 1.117393 -3.187711 1 92
2.442801 -0.2433322 -2.46045 0.02231059 -1.439254 -1.231778 0.5304613 -2.713838 -0.8699535 -1.247693 0.1174813 -0.9329006 0.2124245 0.1407611 -1.565599 0.8994658 -0.7112883 0.6174968 -0.9753742 0.553014 0.6603727 1.253584 -0.2376481 0.828479 -1.371696 0.6227276 1.640934 0.5753683 0.7206618 -1.050755 1.807326 -0.59518 1.541847 -0.1966715 1.445804 -0.9816725 1.514743 -0.1457658 1.246681 -0.3300073 2.050651 -2.144464 1 96
1.356893 -0.4461113 -2.436576 -0.2041346 -1.455101 -1.515713 0.3009147 -3.280543 -0.6038775 -1.651157 0.2082802 -1.190316 0.314838 0.3736355 -1.51397 0.9689659 -1.036331 0.7377953 -1.424023 1.245786 0.6354751 1.531717 -0.5893293 0.9727552 -1.752815 0.6691506 1.92025 0.4561536 1.0149 -1.120274 1.774672 -0.6816898 1.518751 -0.1272348 1.395599 -0.8404808 1.479214 -0.2306828 1.183018 -0.2338015 3.044859 -0.7694539 1 100
1.057996 -0.4330968 -2.511944 -0.1975761 -1.380752 -1.480885 0.2298864 -3.610748 -0.4968223 -1.694313 0.447207 -1.256806 0.5957875 0.4631907 -1.481398 0.9132995 -1.30176 0.7309281 -1.609934 1.852613 0.5221191 1.58471 -0.8907179 0.9668655 -1.767993 0.5434557 1.992417 0.226891 1.064416 -1.194947 1.661685 -0.8481056 1.365129 -0.3069558 1.232368 -0.8577114 1.319947 -0.4578671 0.9834785 -0.4041948 3.493278 0.9368444 1 104
2.218031 -0.2469134 -2.690006 -0.006463062 -1.252158 -1.228191 0.3873238 -3.608313 -0.5655038 -1.58565 0.7450222 -1.202123 0.909943 0.4572097 -1.473982 0.7566804 -1.429588 0.6444114 -1.683765 2.025561 0.4010358 1.420945 -1.081826 0.8022112 -1.626263 0.2524303 1.889685 -0.09964357 0.8538929 -1.392508 1.483818 -1.173466 1.123193 -0.6886083 0.9778104 -1.164629 1.065738 -0.6653422 0.7102865 -0.8459485 3.391252 3.194346 1 108
3.288114 -0.2100756 -2.89921 0.0237373 -1.305412 -1.327439 0.4929195 -3.598235 -0.6466339 -1.614363 1.019974 -1.319545 1.165608 0.5154213 -1.567784 0.5781593 -1.540056 0.6697363 -1.818195 1.772113 0.3790212 1.415278 -1.149685 0.7149828 -1.544857 0.1223613 1.890315 -0.3406598 0.7371967 -1.587734 1.419852 -1.386388 1.006628 -0.8806822 0.8422042 -1.426055 0.9460385 -0.5709493 0.5938846 -1.085558 3.35704 4.868917 1 112
2.960213 -0.4103857 -3.059161 -0.1980522 -1.642639 -1.903999 0.3186342 -3.735037 -0.6748253 -1.855184 1.212194 -1.789612 1.348571 0.6848221 -1.834511 0.4119047 -1.7577 0.848457 -1.94487 1.567603 0.455703 1.728884 -1.071155 0.8745889 -1.433553 0.3085531 2.151738 -0.3094437 0.9180166 -1.525817 1.55484 -1.135983 1.102355 -0.6430768 0.9454566 -1.187998 1.055773 -0.1204432 0.7324846 -0.7686529 3.640912 4.180328 1 116
1.978385 -0.6028553 -3.175738 -0.41101 -2.116529 -2.504071 -0.03477831 -3.910744 -0.6289163 -2.277061 1.280481 -2.351155 1.446404 0.838334 -2.258814 0.2153542 -2.076781 1.009312 -2.007995 1.649152 0.5352094 2.128368 -0.9700016 1.184521 -1.309527 0.7299267 2.539448 -0.1110716 1.245845 -1.317234 1.848338 -0.6244996 1.355535 -0.2017558 1.225283 -0.6979415 1.302347 0.407279 1.031493 -0.1112385 4.038832 1.709804 1 120
1.469185 -0.6108821 -3.398238 -0.4311034 -2.615393 -2.824545 -0.3324293 -4.064582 -0.4692617 -2.748878 1.270609 -2.642543 1.472699 0.8600377 -2.764797 -0.1251587 -2.372626 1.018089 -1.988931 1.782589 0.5971023 2.345236 -0.9767818 1.483053 -1.223907 1.350408 2.86852 0.01770307 1.500534 -1.183116 2.220563 -0.2226886 1.673089 0.1078186 1.54861 -0.4350334 1.584632 0.8149574 1.340796 0.45691 4.388061 -0.7403347 1 124
1.446685 -0.5515169 -3.77765 -0.3797033 -3.059546 -2.926109 -0.536532 -4.151704 -0.3344944 -3.225776 1.146603 -2.571764 1.33054 0.7891893 -3.193373 -0.6275352 -2.541221 0.8799921 -1.9161 1.859336 0.6819537 2.351416 -1.067719 1.701697 -1.196001 1.965815 3.104715 0.04196497 1.620437 -1.042412 2.564538 0.06964187 1.962752 0.2379862 1.807768 -0.3149633 1.863948 1.189155 1.605191 0.8197229 4.567815 -2.194814 1 128
1.524881 -0.5827754 -4.124708 -0.414896 -3.273176 -2.947126 -0.7284834 -3.964178 -0.4615664 -3.631847 0.7589043 -2.089838 0.8564405 0.7655445 -3.353149 -1.093214 -2.580511 0.6759095 -1.839391 1.861344 0.8151951 2.336118 -1.16442 1.779705 -1.400254 2.105275 3.284212 0.07658825 1.666633 -0.8709396 2.766195 0.3221568 2.163473 0.3557544 1.982683 -0.09616899 2.097922 1.591422 1.844061 1.157114 4.283453 -2.454356 1 132
1.558178 -0.7113063 -4.123986 -0.5496029 -3.191998 -2.887726 -0.9327765 -3.466528 -0.7642002 -3.706264 0.2732504 -1.181753 0.2773067 0.8859026 -3.226486 -1.302565 -2.515991 0.5130005 -1.636742 1.578977 0.9879604 2.440987 -1.175836 1.70622 -1.871179 1.685741 3.410717 0.1887589 1.685895 -0.8523226 2.765794 0.4983901 2.264617 0.6099792 2.098844 0.1596849 2.2173 1.884373 2.023416 1.5822 3.613299 -2.813576 1 136
1.492099 -0.890667 -3.634269 -0.7470053 -2.975205 -2.666202 -1.119932 -3.016749 -0.8993963 -3.374978 0.03608827 -0.229148 0.01574284 1.102888 -2.972352 -1.246253 -2.31202 0.4482904 -1.185598 0.9717205 1.12462 2.56767 -1.039314 1.613402 -2.257139 1.224571 3.4599 0.3567634 1.697275 -0.962727 2.652027 0.6593933 2.330986 0.945899 2.186929 0.3260892 2.236143 1.959791 2.120928 1.953201 3.197128 -5.150623 1 140
1.449211 -1.014713 -2.878629 -0.897999 -2.757781 -2.3782 -1.206177 -2.792433 -0.7601538 -2.803819 0.1295667 0.3837627 0.1466891 1.220092 -2.726928 -1.128983 -1.932253 0.414667 -0.505307 0.4973958 1.159503 2.506845 -0.7715521 1.62747 -2.169291 1.135935 3.399828 0.5155013 1.65882 -0.9812105 2.586836 0.8925345 2.375132 1.113218 2.233407 0.3632963 2.196383 1.874489 2.146779 2.037384 3.159715 -9.519 1 144
1.87745 -0.9948063 -2.213466 -0.907023 -2.57264 -2.148312 -1.183537 -2.638216 -0.5456209 -2.191005 0.4703953 0.5447242 0.5189967 1.05591 -2.572835 -1.18189 -1.499836 0.2881628 0.06881874 0.5879529 1.07349 2.153221 -0.4983371 1.702145 -1.7329 1.283881 3.190068 0.5686915 1.461565 -0.8959408 2.527588 1.029892 2.291352 0.9578732 2.157452 0.2270793 2.073057 1.716571 2.05287 1.777424 2.999473 -12.87978 1 148
2.997867 -0.9056417 -1.830324 -0.8340319 -2.478583 -1.799603 -1.149059 -2.51508 -0.4097802 -1.744553 0.8919464 0.1836317 0.9551244 0.6365583 -2.555821 -1.402346 -1.260941 0.06279018 -0.0434067 0.9956386 0.8105501 1.616109 -0.4037295 1.703099 -1.513078 1.260243 2.85138 0.4411899 1.116098 -0.916415 2.268479 0.7554328 2.017394 0.573957 1.899813 -0.08313338 1.83915 1.480361 1.815847 1.330496 2.567953 -11.22554 1 152
4.297146 -0.816695 -1.685684 -0.732922 -2.450512 -1.15202 -1.092261 -2.430632 -0.3854139 -1.450573 1.183749 -0.3900531 1.274718 0.1518704 -2.576881 -1.578235 -1.277372 -0.1458124 -0.707929 1.237257 0.3877206 1.16001 -0.4825251 1.591725 -1.674397 0.8893937 2.513567 0.1977632 0.7919527 -1.112847 1.842325 0.1557791 1.652309 0.1713517 1.543214 -0.4154493 1.541595 1.124656 1.516657 0.9279787 2.007887 -5.602365 1 156
5.133073 -0.6560702 -1.78841 -0.5341082 -2.402662 -0.4874991 -0.9111044 -2.321144 -0.5173422 -1.167317 1.259847 -0.7512762 1.370701 -0.2252882 -2.481349 -1.613787 -1.346328 -0.2433152 -1.158026 1.370402 -0.01217954 0.9264076 -0.5321177 1.478983 -1.794202 0.486385 2.317851 -0.01494372 0.6279154 -1.311312 1.540569 -0.279439 1.393945 -0.09493092 1.302038 -0.561124 1.331535 0.7502871 1.292285 0.7161669 1.394301 -1.487494 1 160
5.382534 -0.4118028 -2.162311 -0.2437345 -2.343765 -0.2576796 -0.6343665 -2.2377 -0.6912462 -0.9558458 1.197261 -1.023372 1.290841 -0.4306011 -2.251703 -1.583316 -1.310473 -0.2192252 -1.284899 1.836483 -0.2368409 0.7940346 -0.5302098 1.499359 -1.775568 0.4324497 2.276015 -0.1624738 0.6029549 -1.456789 1.54692 -0.4028604 1.362521 -0.2677844 1.294091 -0.5740794 1.316 0.5249027 1.264318 0.6340814 0.9718094 -0.7780092 1 164
5.2383 -0.2624833 -2.494394 -0.06679895 -2.264044 -0.4499386 -0.3994122 -2.208574 -0.7333391 -0.7634575 1.080482 -1.361845 1.143119 -0.4999565 -1.954061 -1.541826 -1.157403 -0.1709694 -1.371373 2.515798 -0.3007693 0.6113868 -0.5550871 1.581694 -1.816823 0.6154497 2.284527 -0.2868128 0.6018096 -1.560448 1.787501 -0.3817949 1.547532 -0.4438447 1.466863 -0.6288515 1.457798 0.510893 1.460102 0.5719826 0.8617714 -1.662688 1 168
4.535439 -0.3755418 -2.535383 -0.178928 -2.155418 -0.7135751 -0.3015845 -2.149589 -0.7046996 -0.4229634 0.8488224 -1.490137 0.8893616 -0.5084183 -1.619516 -1.490577 -0.9192472 -0.2372984 -1.205352 2.693091 -0.299147 0.4178019 -0.497995 1.535262 -1.68928 0.7923024 2.321606 -0.3272907 0.6009265 -1.450365 2.10594 -0.126774 1.913309 -0.4989881 1.779952 -0.5669941 1.743448 0.6933122 1.836695 0.635116 0.822069 -3.699387 1 172
3.037759 -0.6857785 -2.383641 -0.4982606 -2.067186 -0.8872315 -0.3665363 -2.028832 -0.7108162 -0.06362382 0.5483819 -1.109112 0.5806646 -0.5116885 -1.246972 -1.419147 -0.7004778 -0.4445777 -0.5811543 2.291056 -0.3289142 0.3292295 -0.3410809 1.367614 -1.235707 0.9873785 2.443219 -0.2096482 0.6451439 -1.146034 2.424875 0.3997394 2.355995 -0.3123777 2.173629 -0.2201625 2.138691 0.906104 2.278911 0.9361393 0.6899946 -7.035592 1 176
1.474935 -0.9363077 -2.14238 -0.7600782 -1.949021 -0.8735845 -0.5060472 -1.86081 -0.7549353 0.1722874 0.3747996 -0.3173219 0.412526 -0.5211644 -0.8540955 -1.332126 -0.5866814 -0.7110137 0.2160544 1.958572 -0.4355137 0.3071045 -0.2786898 1.195649 -0.8144505 1.243461 2.601375 -0.03488058 0.673327 -0.87873 2.679907 0.917232 2.673806 -0.03300612 2.488137 0.1976869 2.450133 0.9427386 2.577491 1.271868 0.4801644 -10.72843 1 180
0.7684138 -0.9146845 -1.90316 -0.7537136 -1.703273 -0.4307525 -0.5621082 -1.676913 -0.7853062 0.2878212 0.310722 0.3163347 0.3475902 -0.5498552 -0.5451861 -1.269424 -0.5610452 -0.9885406 0.5645235 1.909937 -0.5700152 0.162173 -0.4792093 1.015914 -0.8641724 1.544437 2.661558 -0.001210982 0.5674043 -0.7785105 2.794595 1.091531 2.75207 0.09360344 2.588739 0.3929576 2.525078 0.8106329 2.604841 1.285094 0.2683544 -12.32722 1 184
0.6813496 -0.7392001 -1.739478 -0.5893639 -1.381536 0.317724 -0.5505297 -1.483651 -0.7065759 0.2903827 0.2304288 0.5741267 0.2639164 -0.6409814 -0.4361537 -1.277812 -0.5499468 -1.270301 0.2208615 1.73223 -0.6791072 -0.1745985 -0.8834171 0.7560512 -1.41701 1.782896 2.588719 -0.1571099 0.3189934 -0.8256404 2.754233 0.8372347 2.634511 -0.001831889 2.448253 0.3692974 2.409959 0.6315122 2.421372 0.8756635 0.1269009 -9.762452 1 188
0.4756855 -0.7211093 -1.54395 -0.5796177 -1.123257 0.9047686 -0.6324666 -1.310661 -0.5339709 0.2914493 0.1839976 1.039777 0.219745 -0.7730016 -0.4706737 -1.325429 -0.503176 -1.495295 -0.05951998 1.291274 -0.766473 -0.5079512 -1.149597 0.4073838 -1.89673 1.814526 2.496396 -0.3312912 0.06667922 -0.8038814 2.60752 0.5640563 2.454849 -0.1131226 2.19248 0.3933897 2.266433 0.5192883 2.184577 0.3414653 0.0606483 -6.135255 1 192
0.1524908 -0.8491657 -1.243938 -0.7208973 -0.9315039 1.272243 -0.7610816 -1.252611 -0.4767505 0.3869776 0.2308316 1.821035 0.2559851 -0.8526762 -0.4679258 -1.290087 -0.4604774 -1.589394 0.353059 0.9961804 -0.8546901 -0.6403031 -1.033049 0.04820427 -1.721096 1.631077 2.456875 -0.3733006 -0.07179239 -0.568647 2.382456 0.6604419 2.268122 -0.05676934 1.960899 0.5939319 2.145903 0.5110369 1.978725 0.01864537 -0.011531 -5.897417 1 196
0.2529748 -0.8421501 -1.074213 -0.7124515 -0.7043498 1.614612 -0.7347812 -1.278081 -0.674113 0.5213133 0.2308825 2.226962 0.2433371 -0.8632948 -0.3438554 -1.170866 -0.4590698 -1.57745 0.9638162 0.977572 -0.9673246 -0.6323053 -0.7022215 -0.2601801 -1.038588 1.310324 2.474848 -0.3300446 -0.1634737 -0.2865236 2.049346 0.8996805 1.988684 0.05639653 1.715152 0.8146652 1.930693 0.5290611 1.748954 -0.09761646 -0.2645402 -7.371815 1 200
0.9974535 -0.6353202 -1.311813 -0.4741172 -0.4815275 1.874103 -0.543884 -1.305717 -0.9197844 0.5345443 0.06290971 2.02631 0.07743382 -0.9111997 -0.2219159 -1.153336 -0.5134658 -1.591448 1.095038 0.8999756 -1.116178 -0.6967814 -0.5055048 -0.5331796 -0.4422558 1.049137 2.545429 -0.3464369 -0.3469596 -0.1241131 1.678767 0.9427992 1.659784 0.05012932 1.428541 0.9359624 1.624783 0.5789731 1.485197 -0.1910721 -0.6301612 -6.551225 1 204
2.047038 -0.4491029 -1.726275 -0.2511248 -0.3871989 1.911438 -0.3240624 -1.3035 -0.9355805 0.3528291 -0.2010125 1.652976 -0.1795221 -1.026198 -0.2278786 -1.245472 -0.5973763 -1.682849 0.8345785 0.5967984 -1.249258 -0.864208 -0.5507714 -0.7570816 -0.2121381 0.95313 2.623103 -0.4493302 -0.5928499 0.006566487 1.418793 0.9191103 1.442436 -0.03182759 1.196099 1.063321 1.374943 0.7888265 1.291359 -0.2678969 -0.8147131 -4.146096 1 208
2.726063 -0.450518 -1.906312 -0.2359795 -0.4373148 1.685114 -0.1798298 -1.318689 -0.8402596 0.07971706 -0.4093194 1.375915 -0.3760061 -1.049883 -0.2717239 -1.212303 -0.6303622 -1.724336 0.5636321 0.1306384 -1.254133 -0.903145 -0.6442974 -0.8690579 -0.24987 0.8819367 2.754721 -0.5210816 -0.7057666 0.1382375 1.311286 0.9926972 1.392447 -0.007109694 1.114042 1.210498 1.27693 1.112631 1.260682 -0.189894 -0.7266719 -2.893345 1 212
2.504975 -0.5835788 -1.932623 -0.3634729 -0.5498398 1.242944 -0.166944 -1.509315 -0.9316831 -0.1693181 -0.4924919 1.004375 -0.4206845 -0.8554401 -0.2406447 -0.9757293 -0.632972 -1.669446 0.2416626 -0.4460842 -1.124205 -0.6755052 -0.6720167 -0.8922848 -0.4312219 0.7345816 3.035973 -0.5408869 -0.6131064 0.1170056 1.317318 0.9743292 1.46894 0.1749554 1.197992 1.217701 1.342303 1.314885 1.375347 0.07622468 -0.4423875 -2.009632 1 216
1.526247 -0.6980954 -2.047437 -0.464688 -0.5736046 0.7202652 -0.231004 -1.747685 -1.155104 -0.2744401 -0.5754562 0.3740488 -0.4437858 -0.5048581 -0.1478574 -0.661655 -0.6815841 -1.637363 -0.2649319 -0.9153834 -0.9921312 -0.3302525 -0.7684501 -0.8878711 -0.6340088 0.599705 3.395115 -0.6089554 -0.4679196 -0.03571143 1.373579 0.7730816 1.558486 0.3674787 1.326878 1.10764 1.45698 1.309719 1.501402 0.3663875 -0.108533 0.1017513 1 220
0.5807352 -0.6690511 -2.185245 -0.4227221 -0.4539903 0.2773385 -0.2699888 -1.693154 -1.230186 -0.1846698 -0.7117732 -0.1124083 -0.5508769 -0.1468277 -0.01767079 -0.4103115 -0.7156287 -1.679549 -0.5791708 -0.8948182 -0.8991919 -0.0970775 -1.009862 -0.8698196 -0.7199956 0.7167479 3.698776 -0.7296778 -0.4147982 -0.1419225 1.479824 0.6750419 1.588672 0.4423038 1.397426 1.059029 1.508759 1.257947 1.555975 0.4817554 0.1272663 0.9627796 1 224
0.1771749 -0.5242077 -2.089563 -0.288652 -0.3110002 0.1343481 -0.3039838 -1.423821 -1.067344 0.02572734 -0.7528801 0.08603482 -0.6080937 0.1228395 0.1373308 -0.3192693 -0.6013211 -1.742929 -0.2119838 -0.3184617 -0.7631695 -0.0420011 -1.24492 -0.8270426 -0.6026779 1.160173 3.891378 -0.8330212 -0.4396326 -0.1423259 1.692315 0.9287262 1.601211 0.4281533 1.42454 1.126082 1.523028 1.292759 1.584071 0.4101021 0.3372679 -2.624946 1 228
0.1432064 -0.3926491 -1.84976 -0.1788592 -0.2433335 0.3445593 -0.4014867 -1.320393 -0.7895876 0.2155599 -0.7357256 0.7615764 -0.6176119 0.2807813 0.3085527 -0.3477512 -0.4073139 -1.803052 0.5552924 0.3781185 -0.6042222 -0.03967197 -1.362262 -0.7716216 -0.3425363 1.62034 3.969609 -0.9383197 -0.463729 -0.1751246 1.93041 1.271478 1.665668 0.3791361 1.456395 1.150165 1.575165 1.286225 1.64006 0.2553707 0.6906567 -8.093241 1 232
0.5035692 -0.2850412 -1.862215 -0.06905873 -0.2419456 0.588447 -0.5095828 -1.443161 -0.5862883 0.1479912 -0.7763315 1.225425 -0.6842482 0.3400086 0.4768556 -0.3228444 -0.3706808 -1.876143 0.8782755 0.6707381 -0.5514494 0.02445913 -1.458619 -0.8461238 -0.2600753 1.689378 3.986115 -1.099048 -0.4717416 -0.4238636 1.984396 1.224785 1.754334 0.3063562 1.485525 1.013945 1.628146 1.051259 1.671545 0.1220425 1.086567 -9.721747 1 236
1.396761 -0.1851951 -2.020755 0.04357461 -0.2345893 0.6587927 -0.5031064 -1.608828 -0.5422531 -0.2550288 -0.7571635 1.031887 -0.6924261 0.3517856 0.5406479 -0.1479569 -0.5686772 -1.921543 0.3351422 0.5314791 -0.6356153 0.1338886 -1.667901 -1.075669 -0.7008143 1.424078 4.011583 -1.270002 -0.4621714 -0.8376045 1.834037 0.7735386 1.754105 0.237073 1.451656 0.8219826 1.572065 0.6989057 1.621554 0.1246967 1.345815 -6.607822 1 240
2.422959 -0.1833645 -2.045973 0.04065437 -0.224302 0.5983423 -0.4018565 -1.828986 -0.5136078 -0.7670309 -0.6525355 0.4275831 -0.601256 0.3575039 0.4010775 0.04155152 -0.8740282 -1.898506 -0.6444644 0.3693689 -0.7572195 0.2025241 -1.970176 -1.223724 -1.541318 1.29267 4.081683 -1.381701 -0.4367929 -1.19954 1.745158 0.2940843 1.710272 0.1572556 1.396493 0.6643649 1.482702 0.5247391 1.584399 0.2304781 1.618622 -2.498114 1 244
3.203768 -0.3320296 -2.06815 -0.1160361 -0.2674555 0.4487158 -0.3564124 -2.065644 -0.4056867 -1.058437 -0.6614943 0.2497518 -0.5958982 0.3665033 0.1409366 0.06494293 -1.118475 -1.884214 -1.216473 0.3116592 -0.79818 0.1746971 -2.19514 -1.225745 -2.241512 1.336544 4.19751 -1.413018 -0.4527649 -1.335595 1.855312 0.1065038 1.766684 0.05868959 1.419409 0.6137595 1.507485 0.6315172 1.638417 0.2758954 1.951611 -0.5118968 1 248
3.773404 -0.5562367 -2.097629 -0.3432218 -0.3305163 0.3615058 -0.4320799 -2.098139 -0.3708235 -1.016358 -0.9155788 0.6626 -0.8312776 0.4165834 -0.03384132 -0.01964078 -1.231595 -1.932131 -1.091249 0.203704 -0.6985926 0.1772344 -2.239976 -1.175768 -2.517933 1.359948 4.391802 -1.319668 -0.4524772 -1.212269 2.059143 0.3079925 1.926408 0.08637121 1.558484 0.7842855 1.632715 0.8943718 1.76612 0.2950588 2.044939 -1.785712 1 252
4.103891 -0.7539389 -1.920853 -0.5619402 -0.4335187 0.543046 -0.613045 -1.968856 -0.4928656 -0.9487594 -1.254874 0.8425924 -1.177949 0.5051835 -0.07596512 -0.07817905 -1.327222 -2.002794 -0.8079742 0.1550789 -0.5534826 0.3561551 -2.188832 -1.063158 -2.500513 1.406967 4.700205 -1.140384 -0.3305928 -1.016112 2.234199 0.6840066 2.0948 0.3412519 1.784748 1.089033 1.778809 1.135172 1.944806 0.4813029 1.864677 -4.834073 1 256
3.798037 -0.9354309 -1.619969 -0.7884802 -0.6993434 0.8766317 -0.8909435 -1.937614 -0.7171642 -1.14291 -1.358075 0.3170155 -1.294711 0.5378387 -0.1187035 -0.1801753 -1.529032 -2.11648 -0.8268966 0.3085638 -0.5002382 0.5674872 -2.160746 -0.9189786 -2.235229 1.368472 5.089764 -1.00029 -0.1397934 -0.8630283 2.283987 1.004883 2.25487 0.7167471 2.055238 1.386991 1.949384 1.349295 2.168781 0.9056566 1.642372 -6.607821 1 260
2.738856 -1.170443 -1.565364 -1.060673 -1.104077 0.9657139 -1.224922 -2.061634 -0.9667446 -1.487343 -1.244953 -0.5862437 -1.177691 0.4338287 -0.2265761 -0.4806826 -1.767689 -2.371963 -1.083624 0.3901929 -0.4938893 0.5783619 -2.21063 -0.837966 -1.709767 1.220659 5.493644 -0.8900566 0.01498601 -0.6274263 2.239743 1.308527 2.47399 1.065477 2.344713 1.733671 2.187161 1.724816 2.450819 1.431889 1.433875 -5.880607 1 264
1.607491 -1.443871 -1.904781 -1.333515 -1.455521 0.7374243 -1.546496 -2.246522 -1.098005 -1.682259 -1.228771 -1.312762 -1.136394 0.2009214 -0.3310879 -0.9780741 -1.907238 -2.791757 -1.391218 0.08982582 -0.4689501 0.3480474 -2.325686 -0.8760302 -1.231037 1.271899 5.780359 -0.7859514 0.05237577 -0.3131538 2.2397 1.607702 2.740705 1.304043 2.57846 2.13809 2.45291 2.2943 2.751433 1.850219 1.251635 -3.508449 1 268
0.9092495 -1.741351 -2.315693 -1.609858 -1.663613 0.5042893 -1.861541 -2.358075 -1.100647 -1.547968 -1.42992 -1.451501 -1.301232 -0.06960222 -0.3508987 -1.491494 -1.95213 -3.220183 -1.546699 -0.4885318 -0.496325 0.04574476 -2.424283 -0.9815474 -1.173409 1.655068 5.889273 -0.7364201 0.0256174 -0.06666979 2.385 1.902371 3.062292 1.501858 2.808472 2.528914 2.771451 2.893186 3.096051 2.21136 1.052251 -1.862908 1 272
0.4786304 -2.110712 -2.346128 -1.984841 -1.817579 0.4334627 -2.215619 -2.219079 -1.131562 -1.310341 -1.712212 -1.073285 -1.559111 -0.3144092 -0.3109683 -1.829448 -2.061083 -3.494694 -1.481478 -1.067943 -0.6504166 -0.09889615 -2.508012 -1.045985 -1.494031 2.121971 5.934455 -0.7416655 0.107129 0.07784274 2.659986 2.266779 3.473012 1.771574 3.185562 2.950677 3.214136 3.356831 3.566505 2.728589 0.6192216 -2.366946 1 276
0.3181536 -2.520637 -2.014905 -2.432027 -2.001903 0.4010895 -2.55204 -1.94114 -1.207392 -1.35731 -1.856095 -0.6667123 -1.692977 -0.5461035 -0.3401741 -1.961333 -2.335877 -3.626592 -1.394677 -1.44249 -0.9387503 -0.07807971 -2.675241 -1.099383 -1.761947 2.284287 5.994438 -0.8090991 0.2858542 0.1584896 2.889524 2.616401 3.820434 2.008946 3.581619 3.414462 3.631349 3.603531 4.010034 3.316411 0.0494343 -3.131641 1 280
0.8295606 -2.761469 -1.804857 -2.694293 -2.125772 0.3831472 -2.677842 -1.762447 -1.223101 -1.607685 -1.807696 -0.5154738 -1.66369 -0.7902523 -0.5077474 -2.016089 -2.650823 -3.718083 -1.419047 -1.528622 -1.305944 -0.1118461 -2.940096 -1.248338 -1.734455 2.057728 6.004807 -0.9376407 0.3531494 0.2050554 2.946781 2.803499 3.941271 2.02488 3.735146 3.755591 3.793507 3.711893 4.177988 3.660876 -0.3671942 -2.464247 1 284
2.013724 -2.659767 -2.017244 -2.562744 -2.060704 0.6299086 -2.475111 -1.677064 -1.137951 -1.681322 -1.765265 -0.5081264 -1.659685 -1.076799 -0.7222633 -2.112675 -2.843794 -3.853967 -1.546384 -1.386376 -1.692541 -0.3595968 -3.263488 -1.488119 -1.648038 1.808819 5.840878 -1.111505 0.1917969 0.1709207 2.897975 2.768325 3.897698 1.798211 3.646006 3.806072 3.717152 3.782254 4.084392 3.612141 -0.6359839 -0.7197613 1 288
3.20912 -2.394615 -2.497888 -2.223207 -1.889452 1.183353 -2.170302 -1.657356 -1.008574 -1.411121 -1.900105 -0.5422578 -1.803812 -1.3559 -0.8444505 -2.222149 -2.911649 -4.01719 -1.748708 -1.18775 -2.058004 -0.7076781 -3.572643 -1.710826 -1.720688 1.748046 5.532389 -1.322627 -0.06024118 0.03845808 2.808614 2.587821 3.838383 1.524561 3.500299 3.675411 3.604439 3.818048 3.950079 3.381894 -0.824844 1.363182 1 292
3.850991 -2.295897 -2.888826 -2.045697 -1.767554 1.641755 -2.085234 -1.720453 -0.9156506 -0.9530916 -2.127126 -0.6779556 -2.03566 -1.499949 -0.8522549 -2.225648 -2.941202 -4.099861 -1.933156 -1.154345 -2.331748 -0.8846972 -3.725091 -1.825761 -1.856637 1.67498 5.302715 -1.468885 -0.1638714 -0.06346614 2.667275 2.507354 3.835281 1.457985 3.421231 3.702826 3.575551 3.87179 3.921452 3.354993 -0.8809485 2.634477 1 296
3.73494 -2.406663 -2.984565 -2.114945 -1.715954 1.69634 -2.192028 -1.852773 -0.852247 -0.6526147 -2.211972 -0.8467177 -2.147746 -1.523779 -0.8215011 -2.104835 -2.988886 -4.069338 -1.993526 -1.270914 -2.482829 -0.8206713 -3.710301 -1.835823 -1.945436 1.474022 5.275124 -1.461576 -0.05452767 -0.04776666 2.519857 2.670959 3.942049 1.629121 3.468017 3.986655 3.646107 4.028168 3.989375 3.599045 -0.7256377 2.175737 1 300
2.985515 -2.5031 -2.771566 -2.215241 -1.679102 1.567839 -2.262918 -1.954081 -0.8581928 -0.613246 -2.068581 -0.9333656 -1.998192 -1.570505 -0.788994 -1.981656 -2.965608 -3.985741 -1.994714 -1.305069 -2.535665 -0.7280838 -3.703355 -1.775013 -2.090426 1.233165 5.366938 -1.378524 0.1090913 0.05363354 2.449743 2.938327 4.126616 1.817986 3.624281 4.271768 3.77001 4.273609 4.095448 3.832309 -0.5874142 0.7320562 1 304
2.198145 -2.429222 -2.28991 -2.170168 -1.619024 1.665528 -2.227997 -1.817734 -0.9993401 -0.6242343 -1.825289 -0.9477592 -1.701977 -1.671076 -0.7302943 -1.943672 -2.746046 -3.933531 -1.975014 -1.146308 -2.52193 -0.8167765 -3.748739 -1.689998 -2.269309 1.020378 5.419723 -1.339471 0.1214691 0.2146007 2.440523 3.171396 4.185075 1.85268 3.722303 4.410096 3.809639 4.533226 4.171117 3.865678 -0.8700116 -0.746771 1 308
1.63477 -2.267874 -1.8163 -2.033087 -1.540655 1.948522 -2.137798 -1.459602 -1.150696 -0.5675926 -1.676522 -0.8733723 -1.524794 -1.720955 -0.611391 -1.934224 -2.424563 -3.971134 -1.728905 -0.7933974 -2.503173 -1.032245 -3.665639 -1.694121 -2.097997 0.7886391 5.361263 -1.345257 -0.01590019 0.437862 2.393945 3.411756 4.081004 1.814892 3.683251 4.493794 3.729155 4.710989 4.187758 3.80125 -1.384186 -2.50749 1 312
0.8128707 -2.188365 -1.705051 -1.956308 -1.477465 1.941689 -2.043482 -1.203764 -1.200194 -0.5682692 -1.764647 -0.881947 -1.638238 -1.611412 -0.4033623 -1.813637 -2.221955 -4.023453 -1.33774 -0.3170478 -2.489015 -1.119255 -3.393651 -1.792374 -1.528039 0.5191578 5.321693 -1.328995 -0.08867239 0.638585 2.350949 3.660323 4.048471 1.85115 3.665725 4.595827 3.698892 4.759965 4.236494 3.898798 -1.525261 -4.378963 1 316
-0.3226658 -2.215156 -1.857676 -1.980473 -1.436967 1.480025 -1.971439 -1.190579 -1.199826 -0.6283859 -2.061317 -1.185703 -1.978368 -1.331905 -0.1146992 -1.528368 -2.162899 -3.982148 -1.070299 -0.009909892 -2.396566 -0.9770441 -3.059855 -1.807724 -0.9509336 0.4307053 5.441189 -1.291266 -0.005015731 0.6945127 2.496958 3.866746 4.18732 1.945979 3.783181 4.676473 3.829575 4.746871 4.382483 4.237097 -1.175212 -6.306853 1 320
-1.099172 -2.232322 -2.03921 -2.004766 -1.433908 0.9562887 -1.903845 -1.325931 -1.168669 -0.594476 -2.421971 -1.567386 -2.373105 -1.047833 0.1199672 -1.247847 -2.103978 -3.901712 -0.8386683 -0.2201765 -2.224615 -0.8232719 -2.737465 -1.691929 -0.4493581 0.7169432 5.626011 -1.290603 0.09353578 0.6838624 2.859896 4.034109 4.387079 1.978799 3.967318 4.659445 4.044794 4.743938 4.542566 4.529472 -0.6910889 -8.510821 1 324
-1.010462 -2.174392 -2.33343 -1.947422 -1.544939 0.7151867 -1.862122 -1.546125 -1.141726 -0.6528502 -2.735013 -1.735215 -2.70305 -0.9495655 0.1282978 -1.179207 -2.052674 -3.890271 -0.6235521 -1.013958 -2.107636 -0.8606992 -2.524034 -1.590874 0.01484641 1.2598 5.690706 -1.356358 0.07583403 0.7883828 3.340057 4.144176 4.58143 1.886053 4.147328 4.578709 4.263026 4.761281 4.668554 4.522557 -0.3947286 -9.635955 1 328
-0.1985735 -2.145017 -2.700543 -1.908233 -1.766846 0.6969965 -1.900633 -1.730864 -1.240547 -0.9290518 -2.951373 -1.71686 -2.916502 -0.9755856 -0.09011719 -1.270211 -2.121804 -3.901373 -0.5776064 -2.168044 -2.10025 -0.9486933 -2.540987 -1.529324 0.2116868 1.826189 5.638206 -1.445978 0.02799354 0.9848795 3.896552 4.218176 4.828133 1.772513 4.377325 4.542704 4.52061 4.800998 4.865148 4.411771 -0.3781273 -9.466742 1 332
0.5674398 -2.266262 -2.849468 -2.027031 -1.979557 0.7617645 -2.007387 -1.832207 -1.489136 -1.178959 -3.091676 -1.704384 -3.02855 -0.9508112 -0.3834044 -1.328066 -2.308179 -3.821849 -0.6811507 -3.260499 -2.093848 -0.8575484 -2.706886 -1.376945 0.03402515 2.178854 5.66406 -1.456503 0.1428126 1.074394 4.388304 4.30797 5.13726 1.83165 4.685919 4.569142 4.829564 4.889706 5.182777 4.567382 -0.491642 -9.641082 1 336
0.7758537 -2.468394 -2.813741 -2.23217 -2.122907 0.8545168 -2.120781 -1.996164 -1.806972 -1.397442 -3.114995 -1.82674 -3.018855 -0.9234255 -0.6272452 -1.335974 -2.550321 -3.700833 -0.8652189 -3.845091 -2.036823 -0.6715487 -2.828851 -1.166032 -0.1921493 2.078136 5.865544 -1.349907 0.3475713 1.005252 4.54645 4.335482 5.332432 2.071032 4.896465 4.588689 5.031554 5.006827 5.438234 4.977978 -0.6110575 -9.528365 1 340
0.8342528 -2.514854 -2.932087 -2.271282 -2.212054 0.8874338 -2.142349 -2.272305 -2.061575 -1.687224 -2.857476 -2.113068 -2.748544 -1.065524 -0.846221 -1.44751 -2.77225 -3.683969 -1.152076 -3.763519 -2.023778 -0.6870964 -2.821469 -1.131096 -0.1192743 1.544351 6.041171 -1.280282 0.306382 0.9359242 4.257442 4.158793 5.205198 2.194657 4.777009 4.527986 4.921028 5.049632 5.370366 5.207843 -0.7760883 -6.836437 1 344
1.364849 -2.209954 -3.174881 -1.954174 -2.199934 1.018584 -1.961643 -2.376871 -2.202408 -1.934115 -2.320032 -2.443133 -2.205099 -1.36468 -1.066925 -1.703102 -2.887684 -3.772185 -1.604016 -3.226122 -2.093646 -1.001691 -2.75392 -1.364228 -0.007486178 0.831214 5.94135 -1.403372 -0.09697285 0.870969 3.642532 3.730509 4.713143 1.958515 4.301413 4.342515 4.44823 4.975075 4.94386 4.969214 -1.196661 -1.527057 1 348
2.417987 -1.679507 -3.18972 -1.425473 -2.000485 1.457812 -1.628305 -2.071284 -2.294666 -2.001728 -1.818422 -2.524765 -1.696061 -1.594117 -1.158377 -1.920821 -2.888496 -3.8549 -2.13687 -2.689879 -2.156406 -1.351886 -2.761921 -1.674385 -0.3544864 0.1845009 5.641402 -1.634682 -0.5772126 0.6227492 2.940277 3.123679 4.069147 1.503598 3.70557 3.989429 3.819431 4.779247 4.410675 4.475064 -1.891366 3.835593 1 352
3.492436 -1.291769 -3.060285 -1.042644 -1.680763 1.904673 -1.368422 -1.638721 -2.337087 -1.843731 -1.741775 -2.300188 -1.627602 -1.527197 -1.016837 -1.908996 -2.852983 -3.907746 -2.515378 -2.666339 -2.095087 -1.373297 -2.866469 -1.85749 -1.0135 -0.1893103 5.490815 -1.760602 -0.8010261 0.2408023 2.41763 2.532721 3.618859 1.186323 3.287775 3.548338 3.351527 4.433955 4.02704 4.126748 -2.317335 6.94287 1 356
3.841358 -1.233091 -3.074073 -0.9764168 -1.414224 1.993779 -1.315835 -1.50976 -2.382314 -1.707831 -2.113663 -2.10639 -2.01983 -1.144671 -0.7200581 -1.64158 -2.85052 -3.943203 -2.647379 -3.238801 -1.838294 -0.9968817 -2.941624 -1.910009 -1.386585 -0.3204544 5.703796 -1.650344 -0.7189342 -0.001845847 2.16081 2.163267 3.47998 1.217502 3.132993 3.221576 3.166147 4.067489 3.850715 4.080093 -2.078965 7.804031 1 360
2.99135 -1.385805 -2.967202 -1.140809 -1.26239 1.855048 -1.395129 -1.702447 -2.458571 -1.82649 -2.518251 -2.147331 -2.41727 -0.6347958 -0.4250889 -1.255517 -2.831146 -3.86583 -2.504733 -3.717413 -1.421809 -0.491486 -2.871289 -1.862394 -1.178126 -0.33447 6.142569 -1.354161 -0.4847991 0.02861129 2.07732 2.112116 3.469568 1.48192 3.097799 3.035357 3.131374 3.899155 3.810896 4.140943 -1.387504 6.568215 1 364
1.502457 -1.512872 -2.513667 -1.320561 -1.222324 1.738393 -1.4761 -1.965413 -2.405113 -1.968563 -2.617965 -2.282415 -2.474166 -0.2045722 -0.2410794 -0.9627429 -2.715666 -3.642667 -2.015302 -3.323216 -0.9869261 -0.126626 -2.637982 -1.676658 -0.5839259 -0.05008013 6.536127 -1.055835 -0.2333634 0.2876424 2.171154 2.367982 3.411321 1.720501 3.043141 2.896662 3.079623 3.92569 3.800141 4.050665 -0.5902546 2.274546 1 368
0.555391 -1.529526 -2.080603 -1.396989 -1.310862 1.597395 -1.575405 -2.260244 -2.18762 -2.014452 -2.393413 -2.2675 -2.22203 0.08591128 -0.2189351 -0.8689383 -2.615324 -3.441644 -1.352086 -2.103567 -0.710635 0.05905831 -2.323678 -1.418976 -0.06198316 0.5916426 6.754152 -0.8947896 -0.01478442 0.6228046 2.423374 2.756042 3.326181 1.81306 2.981238 2.817792 3.014747 3.945203 3.762614 3.822665 0.2212912 -3.886531 1 372
0.4824941 -1.568966 -1.889216 -1.475345 -1.481585 1.387343 -1.800309 -2.715304 -1.997113 -2.198619 -2.019454 -1.960456 -1.884032 0.3015852 -0.3392657 -0.8581753 -2.687962 -3.383587 -0.7999022 -0.8282104 -0.6350456 0.2309176 -2.037307 -1.221525 0.0980212 1.170326 6.875847 -0.8279362 0.2070562 0.8339292 2.65273 3.047978 3.325803 1.862046 3.001608 2.803928 3.054749 3.845786 3.745355 3.728156 1.062253 -9.108611 1 376
0.5895006 -1.701837 -1.890918 -1.621385 -1.656086 1.096377 -2.07288 -3.215693 -1.924548 -2.532325 -1.828085 -1.615091 -1.77213 0.5037739 -0.4559927 -0.7733497 -2.84767 -3.397255 -0.5383652 -0.2819488 -0.6210774 0.4918118 -1.831211 -1.114956 0.01724612 1.374549 7.029149 -0.7478908 0.4659645 0.8293355 2.764585 3.120296 3.434793 1.985287 3.125539 2.768166 3.206152 3.692249 3.799526 3.901961 1.775072 -11.53061 1 380
0.5478008 -1.822843 -2.192626 -1.720206 -1.785017 0.5720381 -2.208009 -3.466964 -1.86722 -2.720642 -2.05137 -1.630907 -2.048029 0.6769581 -0.4033262 -0.6665241 -2.844466 -3.387131 -0.6849043 -0.6718948 -0.5841153 0.6691228 -1.725644 -1.070187 -0.08000027 1.301524 7.150143 -0.6996856 0.6614031 0.6800402 2.804333 2.913056 3.571584 2.036234 3.260612 2.605875 3.345099 3.562525 3.880939 4.052078 2.161639 -10.12136 1 384
0.9201456 -1.804584 -2.650079 -1.658117 -1.792903 0.08075979 -2.164097 -3.37187 -1.82002 -2.600105 -2.504315 -1.923178 -2.497484 0.7251778 -0.1773109 -0.6867334 -2.568854 -3.349245 -1.165485 -1.406522 -0.5656074 0.5754728 -1.753059 -1.050034 -0.2515843 1.093229 7.063215 -0.8162816 0.642323 0.4634596 2.803639 2.427643 3.606045 1.792708 3.273906 2.237839 3.360151 3.409261 3.867831 3.812045 2.103975 -5.681332 1 388
1.938293 -1.603386 -2.849934 -1.431288 -1.63157 0.1573118 -1.978227 -3.105374 -1.899862 -2.322491 -2.829136 -2.038204 -2.799558 0.6369787 0.1286 -0.7946815 -2.188287 -3.293463 -1.699913 -1.738589 -0.5903283 0.3454513 -1.89144 -1.040496 -0.6979129 0.7574574 6.781232 -1.090663 0.4441357 0.1652822 2.732606 1.787535 3.435922 1.349191 3.10785 1.71122 3.200922 3.148533 3.660854 3.264713 1.662424 -0.901801 1 392
2.927349 -1.340684 -2.7198 -1.172295 -1.37933 0.6857666 -1.729618 -2.825797 -2.094244 -2.056835 -2.927139 -1.728226 -2.898294 0.5567765 0.4830071 -0.8270893 -1.917466 -3.23312 -1.963931 -1.794205 -0.6336356 0.262177 -1.990167 -1.126846 -1.230613 0.2482585 6.519234 -1.339439 0.290068 -0.1765931 2.526708 1.231573 3.124174 1.017453 2.84272 1.265958 2.915186 2.80668 3.323375 2.827642 1.091408 2.159835 1 396
3.539231 -1.219546 -2.441694 -1.068736 -1.167064 1.159242 -1.547743 -2.52758 -2.338576 -1.860401 -2.870711 -1.23922 -2.85618 0.5205635 0.8343311 -0.7850511 -1.793022 -3.240806 -1.888322 -2.293513 -0.6831713 0.3394725 -1.952028 -1.38666 -1.383036 -0.3539281 6.404457 -1.431698 0.2983283 -0.4271831 2.184269 0.9104207 2.821551 0.9075388 2.588721 1.077283 2.632406 2.489106 3.020179 2.693 0.500026 3.83576 1 400
4.326761 -1.184516 -2.143976 -1.053549 -1.062975 1.528252 -1.430748 -2.190538 -2.599951 -1.702269 -2.744137 -0.9983982 -2.717603 0.4334876 1.051157 -0.8415515 -1.671397 -3.335346 -1.654554 -3.290874 -0.7076098 0.3742755 -1.826649 -1.73393 -1.019299 -0.8059226 6.354741 -1.414149 0.3611574 -0.465277 1.824152 0.8016529 2.552065 0.8530625 2.345695 1.043843 2.37607 2.287512 2.78492 2.63982 -0.1540615 4.810647 1 404
5.421721 -1.026911 -1.9796 -0.9064595 -1.111501 1.99787 -1.300728 -1.913375 -2.724171 -1.532997 -2.719746 -1.114475 -2.658754 0.27783 1.046499 -1.105728 -1.406623 -3.460529 -1.385311 -4.064896 -0.6491731 0.2678429 -1.61948 -2.013114 -0.3386593 -0.9584953 6.295941 -1.365245 0.3344592 -0.2641308 1.592816 0.8265892 2.283864 0.7065752 2.083968 1.000464 2.093792 2.218063 2.550682 2.400165 -0.7051197 4.926092 1 408
6.221639 -0.8580561 -1.948604 -0.743876 -1.312706 2.449671 -1.241162 -1.808626 -2.602964 -1.502121 -2.922189 -1.300116 -2.850825 0.1074147 0.8697934 -1.441562 -1.079743 -3.578427 -1.193852 -4.32901 -0.5085644 0.100283 -1.349932 -2.179809 0.2343787 -0.8886124 6.281681 -1.276806 0.2536044 0.01953491 1.547606 0.8808717 2.094771 0.5663993 1.887895 0.9611356 1.888242 2.238354 2.352058 2.058853 -0.9089985 4.812255 1 412
6.402874 -0.8971825 -1.757463 -0.8020439 -1.53282 2.74593 -1.364572 -1.777699 -2.478685 -1.606588 -3.197502 -1.224955 -3.137851 -0.05083616 0.6738207 -1.613455 -0.8566913 -3.653556 -1.149449 -4.543124 -0.3428994 0.03900489 -1.148248 -2.276435 0.2235588 -0.8085665 6.3487 -1.087945 0.2945257 0.1517541 1.646207 0.9400862 2.090394 0.6496084 1.888264 1.052841 1.908965 2.323136 2.310461 1.992674 -0.9889861 4.614736 1 416
5.713685 -1.052336 -1.317973 -0.9828979 -1.681951 2.877729 -1.568703 -1.598841 -2.601951 -1.560029 -3.247936 -0.9185519 -3.180531 -0.2486494 0.5391811 -1.618231 -0.7194903 -3.652009 -1.087619 -4.801645 -0.2201355 0.1070764 -1.017578 -2.301876 -0.186777 -0.8693281 6.442719 -0.7830926 0.4771023 0.1360389 1.816502 1.093134 2.226041 0.9592276 2.064198 1.287187 2.102835 2.469408 2.465753 2.364034 -1.439074 3.515359 1 420
4.140196 -1.169402 -0.8923778 -1.117026 -1.850357 2.526197 -1.704395 -1.249524 -2.726894 -1.324088 -2.986806 -0.5965051 -2.88839 -0.5469572 0.4149431 -1.636911 -0.5053428 -3.570629 -0.7614847 -4.66602 -0.1611335 0.127617 -0.7957304 -2.220468 -0.3037569 -0.9194996 6.472534 -0.4381013 0.6342776 0.1770856 2.040498 1.405331 2.403272 1.251479 2.28303 1.525833 2.332344 2.687381 2.752832 2.89182 -2.153085 1.118098 1 424
2.786069 -1.21742 -0.675222 -1.171274 -2.10875 1.56914 -1.762096 -0.9407082 -2.469316 -1.049624 -2.582399 -0.2643736 -2.448081 -0.9467604 0.2206415 -1.780447 -0.162591 -3.467022 -0.1773145 -3.995892 -0.1612623 -0.03901 -0.4761018 -2.011355 -0.01447868 -0.6546605 6.354661 -0.2301087 0.6586441 0.2839082 2.356493 1.759934 2.628676 1.276906 2.499513 1.569156 2.573636 2.907764 3.068151 3.167724 -2.571705 -2.303124 1 428
2.577164 -1.161066 -0.6814407 -1.106921 -2.364086 0.7356691 -1.761364 -0.7846115 -1.939718 -0.688319 -2.247164 0.08051825 -2.103646 -1.384461 -0.02850025 -1.997196 0.1448755 -3.414433 0.3752804 -3.058202 -0.2751789 -0.3423331 -0.2447188 -1.710077 0.2326763 -0.1134409 6.063881 -0.2868159 0.5748237 0.2798116 2.744266 1.939962 2.914346 1.020585 2.728732 1.333041 2.842316 2.952636 3.332638 3.096212 -2.623731 -5.652057 1 432
2.95889 -0.9762993 -0.7863047 -0.8963574 -2.466776 0.7574766 -1.682674 -0.7263131 -1.574949 -0.1811441 -2.04573 0.2973824 -1.925564 -1.739175 -0.1658449 -2.100381 0.2494029 -3.365957 0.6778808 -2.131156 -0.5448733 -0.5933506 -0.1994265 -1.398752 0.1621173 0.384563 5.670333 -0.501645 0.5020107 0.06759596 3.089896 1.907803 3.197436 0.7233913 2.95188 0.9725111 3.103433 2.736986 3.545845 2.98862 -2.641381 -8.301438 1 436
3.468077 -0.6632274 -0.8216534 -0.5561996 -2.340552 1.483655 -1.484862 -0.6903338 -1.578752 0.2636503 -1.915291 0.4356277 -1.837014 -1.950029 -0.0944634 -1.991357 0.171429 -3.246543 0.7007531 -1.427412 -0.889752 -0.7188868 -0.295053 -1.150226 -0.2768891 0.6100833 5.258919 -0.7295091 0.5073335 -0.3458354 3.270626 1.681652 3.354238 0.5174679 3.095026 0.5765673 3.259267 2.331371 3.666496 3.045311 -2.841792 -9.851867 1 440
4.318336 -0.343381 -0.7283331 -0.2296074 -2.087484 2.265988 -1.229104 -0.5748325 -1.732654 0.4552784 -1.855893 0.615192 -1.843352 -2.097282 0.02098728 -1.843416 0.08508081 -3.144605 0.5025936 -1.257149 -1.173292 -0.8625902 -0.4193755 -1.042263 -0.8577265 0.5146199 4.859406 -0.9451559 0.4853212 -0.7471111 3.252593 1.294528 3.314516 0.2974996 3.084526 0.1688158 3.237148 1.931376 3.622889 3.043645 -3.258694 -9.097149 1 444
5.163877 -0.1972353 -0.5341989 -0.09611869 -1.913792 2.640404 -1.085805 -0.3356107 -1.693514 0.5063 -1.86747 0.9174759 -1.901277 -2.247128 0.0001967495 -1.857036 0.13681 -3.147631 0.4777473 -1.695058 -1.304872 -1.123766 -0.3763423 -1.091554 -0.96819 0.2866807 4.533679 -1.083705 0.355769 -0.8025622 3.111339 1.032056 3.156282 0.03224745 2.938595 -0.07712442 3.079478 1.723795 3.468487 2.76001 -3.679842 -7.241402 1 448
5.776655 -0.2033778 -0.3438866 -0.1153964 -1.834464 2.548653 -1.091078 0.01705187 -1.48856 0.5376518 -1.902782 1.494282 -1.932354 -2.355533 -0.06847537 -1.961588 0.2779085 -3.202745 0.9643322 -2.376887 -1.304079 -1.406606 -0.1165807 -1.246828 -0.3446595 0.04360795 4.330083 -1.093215 0.1867984 -0.5596614 2.879752 0.9993492 2.943247 -0.1950877 2.715105 -0.1777324 2.851278 1.595165 3.273917 2.293412 -4.013784 -6.392947 1 452
6.26915 -0.2813495 -0.2145431 -0.2013616 -1.713594 2.205772 -1.143686 0.3342716 -1.324832 0.4074398 -1.947235 1.956717 -1.964007 -2.402362 -0.02754879 -1.938085 0.2953776 -3.269271 1.350867 -2.907759 -1.324579 -1.560583 0.08959122 -1.446824 0.3893062 -0.2999211 4.185308 -1.090355 0.07194488 -0.4629296 2.513634 0.794715 2.673258 -0.353255 2.458449 -0.3756931 2.599649 1.294747 3.033418 1.896256 -4.256796 -4.313234 1 456
6.132587 -0.435713 0.0219579 -0.3858564 -1.54151 1.889686 -1.181165 0.3793314 -1.084183 0.08507615 -1.968053 1.696434 -1.988042 -2.400365 0.09388673 -1.732809 0.1341276 -3.313821 1.000484 -3.179229 -1.435052 -1.537723 0.09150048 -1.61321 0.6180183 -0.6041729 4.075178 -1.160442 0.04291651 -0.7163548 2.107399 0.2602984 2.443112 -0.4258282 2.252486 -0.6856558 2.402083 0.8644981 2.775968 1.718937 -4.06698 0.3702722 1 460
5.119494 -0.6398411 0.4007845 -0.6583377 -1.45609 1.697904 -1.208466 0.1918332 -0.6144578 -0.1917295 -1.929628 0.9753458 -1.955399 -2.366748 0.1554699 -1.572303 -0.02753444 -3.282373 0.3339791 -3.328619 -1.542844 -1.455046 0.00937438 -1.712889 0.5059272 -0.5833956 4.023849 -1.240515 0.02481213 -1.055236 1.93454 -0.2009764 2.422912 -0.4441833 2.215344 -0.903952 2.356999 0.5924423 2.622676 1.700745 -3.363564 4.449629 1 464
3.973898 -0.7474529 0.5566036 -0.8308309 -1.588712 1.514116 -1.208965 -0.0468541 -0.02808809 -0.3377564 -1.751763 0.4661652 -1.774452 -2.425032 0.02353206 -1.687101 -0.1376095 -3.213227 -0.05702734 -3.240811 -1.637521 -1.481628 -0.1162701 -1.723027 0.4406293 -0.195259 3.955438 -1.333156 -0.07209401 -1.190234 2.096251 -0.3299256 2.593324 -0.5656934 2.324173 -0.967058 2.446629 0.5853508 2.6193 1.629196 -2.606972 6.069856 1 468
3.518175 -0.5869085 0.2555143 -0.6737955 -1.886911 1.384418 -1.135946 -0.2427612 0.4340189 -0.3811202 -1.384579 0.3264108 -1.388985 -2.664374 -0.2959498 -1.970817 -0.2719305 -3.178673 -0.1755762 -2.767024 -1.790135 -1.592514 -0.2896411 -1.64701 0.4497249 0.2530257 3.780214 -1.520822 -0.1991072 -1.155419 2.310439 -0.3126156 2.714699 -0.8400188 2.383393 -0.9726896 2.498818 0.6213481 2.620581 1.402798 -2.230529 6.602293 1 472
3.79306 -0.2112313 -0.3285065 -0.2360803 -2.12139 1.493074 -0.9861639 -0.3678445 0.5630235 -0.3230692 -0.9861515 0.1701513 -0.9605274 -2.89929 -0.6157693 -2.101088 -0.4680562 -3.128062 -0.416303 -2.344467 -1.982157 -1.576475 -0.5008175 -1.610403 0.3299691 0.3223307 3.517964 -1.81641 -0.2604777 -1.202916 2.265991 -0.4390839 2.641847 -1.103027 2.272539 -0.9765747 2.404175 0.4969493 2.493029 1.173768 -2.225213 8.249644 1 476
4.324815 0.2105925 -0.9399025 0.266769 -2.154891 1.760546 -0.7562227 -0.4443375 0.4542236 -0.3014857 -0.7420586 -0.1213503 -0.6956678 -2.870886 -0.778891 -1.938482 -0.7412069 -2.941931 -0.9095727 -2.277517 -2.108551 -1.312733 -0.8081776 -1.637113 -0.01021845 -0.004421299 3.301485 -2.151803 -0.2383639 -1.509477 1.966055 -0.7880934 2.406331 -1.259448 2.027656 -1.029176 2.176746 0.2271208 2.230838 1.059344 -2.212922 11.27233 1 480
4.909982 0.5742233 -1.34801 0.6914516 -2.050685 1.973914 -0.4539217 -0.406884 0.4327973 -0.3041722 -0.7040744 -0.0674953 -0.6314707 -2.621077 -0.8083171 -1.635289 -0.9909003 -2.64975 -1.231336 -2.297693 -2.11093 -0.93628 -1.184398 -1.596219 -0.4317476 -0.307128 3.242741 -2.438919 -0.1736157 -1.994078 1.627213 -1.206308 2.082493 -1.380915 1.730297 -1.23326 1.876276 -0.08303469 1.89291 0.9223191 -2.034929 13.35628 1 484
5.568884 0.7798575 -1.350027 0.9204962 -1.887537 2.052418 -0.1512137 -0.1140078 0.6377227 -0.1190161 -0.7646803 0.5587391 -0.6408641 -2.39262 -0.8062757 -1.390789 -1.083042 -2.382837 -1.126826 -2.221133 -2.041539 -0.6699984 -1.52627 -1.514837 -0.8325933 -0.3495454 3.274003 -2.65325 -0.1286508 -2.392008 1.402134 -1.500739 1.743663 -1.541049 1.415554 -1.551323 1.56873 -0.3002948 1.580007 0.6401126 -1.906295 13.19695 1 488
6.210268 0.837908 -0.964172 0.9564325 -1.755137 2.05618 0.04963575 0.4395944 0.9446049 0.1206509 -0.7532281 1.504667 -0.5947983 -2.263911 -0.8093005 -1.269265 -1.075808 -2.184161 -0.854883 -2.071403 -1.954659 -0.5144447 -1.834843 -1.501037 -1.374572 -0.2377335 3.312079 -2.807313 -0.08985527 -2.601655 1.241475 -1.617558 1.423171 -1.688623 1.110003 -1.770995 1.28473 -0.3818766 1.356706 0.3730151 -1.994047 11.74421 1 492
6.567865 0.8187577 -0.4912154 0.8828945 -1.797505 1.967293 0.01947224 0.9940878 1.197821 0.0389463 -0.6227165 2.353681 -0.4844337 -2.148747 -0.8022404 -1.223757 -1.189303 -2.070118 -0.7903564 -1.813964 -1.867255 -0.3119427 -2.183563 -1.502574 -2.157187 -0.1111601 3.40893 -2.863983 0.02829336 -2.810511 1.077411 -1.676983 1.196301 -1.667528 0.9547462 -1.785493 1.105233 -0.424572 1.253082 0.4011482 -2.15676 10.68795 1 496
6.102602 0.6470453 -0.1472919 0.6451416 -1.988492 1.561236 -0.2523091 1.188551 1.418779 -0.3974409 -0.3428087 2.713569 -0.260571 -2.008603 -0.7690773 -1.180052 -1.477795 -2.037302 -0.9936741 -1.387429 -1.800209 -0.04980941 -2.594694 -1.437085 -2.826688 0.04438972 3.571863 -2.800426 0.237194 -3.079067 0.9918354 -1.728884 1.177632 -1.440928 1.029317 -1.692176 1.125687 -0.4391451 1.295263 0.74805 -1.982017 10.61573 1 500
4.797973 0.3269477 0.1506139 0.2626613 -2.146575 0.9119641 -0.540488 1.068056 1.638811 -0.7662923 0.0517198 2.676474 0.09882398 -1.880176 -0.6742256 -1.141447 -1.651876 -2.022 -1.04062 -0.9274288 -1.743434 0.1085844 -2.924816 -1.334822 -2.838395 0.2194918 3.670515 -2.673083 0.4404978 -3.128613 1.017011 -1.602661 1.271449 -1.200926 1.162645 -1.562238 1.242729 -0.3358514 1.381144 1.08081 -1.486288 10.04332 1 504
3.724965 0.1241517 0.4081426 0.01850856 -2.203354 0.477118 -0.6590884 1.046016 1.721996 -0.7394857 0.3316783 2.589494 0.3868078 -1.837002 -0.5270757 -1.198898 -1.514996 -2.004441 -0.6318127 -0.7559127 -1.671984 0.05373846 -2.971871 -1.251684 -2.151532 0.3992949 3.569799 -2.560471 0.5442778 -2.813585 1.094619 -1.219514 1.313664 -1.102468 1.221633 -1.394952 1.302941 -0.119534 1.411586 1.14859 -1.304094 7.744694 1 508
3.665016 0.1664058 0.4972855 0.04955048 -2.1764 0.4095295 -0.6747341 1.157642 1.638836 -0.5345561 0.3467382 2.484015 0.4255773 -1.880545 -0.3803883 -1.32094 -1.270033 -1.993485 -0.0895029 -0.9296259 -1.596103 -0.1007253 -2.756596 -1.180058 -1.371915 0.7369068 3.27885 -2.508214 0.5701835 -2.413666 1.227765 -0.7862142 1.351276 -1.067694 1.266498 -1.251056 1.341367 0.08378255 1.466165 1.124167 -1.505859 4.50072 1 512
4.005271 0.2533181 0.4715352 0.1458508 -2.071037 0.4732974 -0.7302162 1.00823 1.464812 -0.5577193 0.198728 2.266905 0.2942353 -1.841732 -0.22224 -1.289477 -1.166469 -1.963197 0.1294878 -1.193088 -1.542952 -0.1432144 -2.47431 -1.102087 -1.038737 1.050345 2.94979 -2.490341 0.6175148 -2.204453 1.355838 -0.5381555 1.430397 -0.9593725 1.330438 -1.165544 1.415904 0.1717477 1.578838 1.31087 -1.477642 2.248677 1 516
3.642917 0.2566013 0.4505976 0.1565455 -1.966021 0.5215948 -0.8215143 0.4369298 1.255315 -1.04933 0.1309002 1.941369 0.2146731 -1.645286 -0.08340256 -1.044444 -1.271003 -1.872562 -0.04250722 -1.325498 -1.526249 -0.02685649 -2.308991 -1.006808 -1.08509 0.9846129 2.694297 -2.449709 0.7304145 -2.143589 1.396958 -0.4463704 1.541324 -0.7634535 1.418805 -1.076023 1.520188 0.2355826 1.714962 1.769884 -0.9618328 1.902043 1 520
2.538406 0.3240947 0.3629236 0.227179 -1.923922 0.6194582 -0.8027512 -0.1584109 1.109797 -1.808861 0.2417012 1.610745 0.2807063 -1.448264 -0.02775581 -0.8066056 -1.458314 -1.754482 -0.2471539 -1.250012 -1.529039 0.04408102 -2.2872 -0.9294764 -1.016153 0.6973518 2.462 -2.402816 0.8055506 -2.045949 1.357015 -0.3070801 1.667248 -0.6046152 1.50841 -0.9484085 1.603936 0.4065846 1.860382 2.234428 -0.3616819 2.156949 1 524
1.724268 0.5802109 0.05762508 0.5132875 -1.84269 0.8131847 -0.5977939 -0.243329 1.021244 -2.133675 0.2952624 1.453541 0.3003093 -1.359182 0.04463192 -0.746755 -1.430386 -1.762236 -0.08242559 -1.168337 -1.545777 -0.1697761 -2.189023 -1.021184 -0.4147677 0.4199722 2.088283 -2.407016 0.6401297 -1.808241 1.222699 -0.09363942 1.676794 -0.6561751 1.475527 -0.8429146 1.559302 0.5892791 1.904492 2.317276 -0.2880149 2.106045 1 528
1.84497 0.8517237 -0.3250888 0.8440269 -1.581208 1.108688 -0.3297028 0.2616847 0.9035641 -1.634093 -0.04100804 1.507737 -0.02327256 -1.366274 0.2620737 -0.8145927 -1.078117 -1.988495 0.3866655 -1.522643 -1.644254 -0.6396471 -1.831879 -1.369239 0.547599 0.1298349 1.490524 -2.454447 0.1813225 -1.537739 1.018232 0.02211891 1.554819 -0.9045418 1.337596 -0.8010592 1.427051 0.6130163 1.805904 2.00955 -0.9262236 2.704855 1 532
2.550265 0.9190188 -0.419437 0.9524251 -1.142812 1.620397 -0.1798702 1.033748 0.7601854 -0.6624041 -0.818835 1.707123 -0.7778845 -1.44037 0.5981792 -0.865181 -0.665499 -2.353653 0.7343469 -2.489539 -1.845376 -1.097507 -1.329564 -1.855171 1.136747 -0.1701058 0.8663109 -2.45916 -0.3385348 -1.456567 0.8154172 -0.08212289 1.474044 -1.087506 1.272306 -0.8208862 1.373549 0.4720201 1.696386 1.758238 -1.929453 4.546752 1 536
3.306188 0.8090619 -0.2322801 0.8462366 -0.7041849 2.282064 -0.1914485 1.635656 0.6861794 0.1819525 -1.608156 2.005806 -1.574129 -1.607474 0.8838324 -0.8829752 -0.4914687 -2.74922 0.661312 -3.49371 -2.064315 -1.421656 -1.000343 -2.270294 0.8944485 -0.420954 0.4172135 -2.422054 -0.7071836 -1.612733 0.6199682 -0.4128517 1.475833 -1.079259 1.276339 -0.9306702 1.398001 0.2602394 1.623377 1.798093 -2.770462 7.586007 1 540
4.21604 0.6594553 -0.0179343 0.6890171 -0.4202286 2.809165 -0.2435686 1.89962 0.8310332 0.631008 -1.851299 2.434541 -1.828447 -1.925805 0.9263117 -1.001238 -0.5914235 -3.115868 0.3004 -3.707332 -2.267653 -1.764935 -1.10303 -2.50507 0.1366497 -0.6165516 0.04707959 -2.480881 -0.9932166 -1.856504 0.3642122 -0.837841 1.406563 -1.088138 1.165471 -1.096116 1.325229 0.0811126 1.479985 1.83537 -3.211315 11.28616 1 544
5.340354 0.5499517 0.2677713 0.5656385 -0.2890554 3.141135 -0.2368828 2.030516 1.213328 0.8331833 -1.539273 2.992898 -1.501269 -2.292998 0.7198746 -1.243987 -0.7701445 -3.391362 0.1291061 -3.03956 -2.436905 -2.185299 -1.499177 -2.578196 -0.4721711 -0.6858928 -0.326501 -2.615241 -1.288102 -1.998341 0.09863245 -1.047372 1.218248 -1.240258 0.9383997 -1.171835 1.111728 0.0686134 1.258639 1.630731 -3.376693 13.11776 1 548
5.984545 0.4271348 0.576054 0.4202611 -0.3055063 3.268475 -0.2911747 1.952577 1.598599 0.8356129 -1.108505 3.197512 -1.036908 -2.546863 0.4417346 -1.497773 -0.8899464 -3.522829 0.2512169 -2.044642 -2.516685 -2.483329 -1.805391 -2.514945 -0.4972313 -0.4685065 -0.5865676 -2.643657 -1.486705 -1.889697 0.03973161 -0.847293 1.128332 -1.332335 0.8263837 -1.015552 0.9888505 0.2612005 1.165317 1.426746 -3.221269 11.76301 1 552
5.629536 0.2007501 0.6671306 0.1797259 -0.4424402 3.206212 -0.5289961 1.417672 1.745741 0.5263938 -0.7538779 2.549334 -0.6477344 -2.662886 0.2755968 -1.671289 -1.022761 -3.536198 0.1036394 -1.332956 -2.536511 -2.503863 -1.933139 -2.407413 -0.2210053 -0.1544727 -0.6666832 -2.545878 -1.48842 -1.713491 0.1628468 -0.5645206 1.272679 -1.19819 0.9018638 -0.7237887 1.086158 0.4707555 1.305014 1.538702 -2.638941 10.65569 1 556
4.38859 -0.1066935 0.6636357 -0.1400028 -0.5554691 3.178708 -0.8254902 0.7245662 1.622368 0.09496355 -0.4380054 1.425472 -0.3090916 -2.666521 0.2489429 -1.753542 -1.202005 -3.518582 -0.5732779 -1.205779 -2.557556 -2.366994 -1.987508 -2.364836 -0.2260467 -0.09529053 -0.6424999 -2.40547 -1.355439 -1.775744 0.2411851 -0.6007019 1.524324 -0.938235 1.063159 -0.5517732 1.292639 0.5374308 1.558214 1.896248 -2.021482 12.72353 1 560
2.634852 -0.4895553 0.714208 -0.551671 -0.6209039 3.009676 -1.083124 0.2729909 1.393135 -0.235979 -0.2524228 0.6931093 -0.1241972 -2.63616 0.1881114 -1.838064 -1.330757 -3.50046 -1.12966 -1.406229 -2.569301 -2.316969 -1.95048 -2.304308 -0.3629921 -0.08742637 -0.5886822 -2.203499 -1.188089 -1.815792 0.3744174 -0.6425831 1.86784 -0.6846331 1.381957 -0.3969648 1.638766 0.6378982 1.90238 2.241068 -1.755628 15.11611 1 564
0.927516 -0.9411429 0.6391504 -1.03777 -0.7738514 2.239526 -1.342499 0.007192872 1.374222 -0.5718713 -0.2103518 0.7150903 -0.09195104 -2.706824 -0.06412328 -2.013109 -1.431408 -3.451075 -1.025619 -1.494678 -2.576329 -2.449982 -1.85866 -2.111878 -0.1569811 0.3241223 -0.565936 -1.957056 -1.037057 -1.498323 0.7871836 -0.2860158 2.361049 -0.5052235 1.888637 -0.0677002 2.166031 0.9619574 2.341625 2.405371 -1.59231 14.68099 1 568
-0.2413631 -1.283514 0.3463794 -1.393289 -1.011565 1.057911 -1.569341 -0.1672574 1.708364 -0.9885717 -0.1876863 1.172822 -0.05966505 -2.884947 -0.4558747 -2.231612 -1.608207 -3.361984 -0.5247341 -1.336776 -2.64055 -2.658499 -1.760549 -1.823174 0.3251796 1.053926 -0.6457894 -1.795365 -0.8934631 -1.112438 1.338668 0.1783236 2.825598 -0.4107762 2.340678 0.2109506 2.634943 1.312245 2.700233 2.391985 -1.281596 12.73032 1 572
-0.9664242 -1.41554 -0.02095036 -1.508214 -1.186098 0.1050241 -1.731666 -0.1735934 2.075637 -1.364877 -0.2224024 1.704579 -0.08536558 -3.041667 -0.7811645 -2.38618 -1.856152 -3.247737 0.005630797 -1.047523 -2.77773 -2.754238 -1.573376 -1.48943 0.7801427 1.612086 -0.7641029 -1.735103 -0.6770862 -0.9780638 1.75878 0.4271248 3.119267 -0.263023 2.61603 0.2851756 2.901627 1.424534 2.908229 2.432069 -1.084643 10.97635 1 576
-1.793378 -1.535836 -0.3028355 -1.600731 -1.250788 -0.3003429 -1.901569 -0.05815021 2.167658 -1.573852 -0.388722 2.095715 -0.2623302 -3.118075 -0.9130344 -2.462884 -2.13021 -3.176553 0.3830221 -0.8477188 -2.961143 -2.702369 -1.338847 -1.150152 1.093304 1.822942 -0.8175479 -1.69645 -0.3931224 -0.9495094 1.974728 0.5443199 3.303463 0.01420588 2.803746 0.3779653 3.088106 1.332323 3.066408 2.649966 -1.172162 10.08043 1 580
-2.658702 -1.811678 -0.4225525 -1.859449 -1.303587 -0.2571055 -2.090619 0.0930116 2.11014 -1.539765 -0.5705405 2.261271 -0.459132 -3.197245 -0.961314 -2.55822 -2.374048 -3.236168 0.5802822 -0.8951985 -3.157109 -2.685854 -1.184085 -0.9280939 1.389191 1.777983 -0.8837624 -1.668201 -0.1879963 -0.7305551 2.025139 0.7066332 3.430665 0.244142 2.938259 0.6735566 3.242464 1.241267 3.201272 2.789213 -1.443345 10.3598 1 584
-2.805166 -2.06612 -0.4169693 -2.106085 -1.386915 0.03041137 -2.168599 0.4062006 2.077935 -1.246738 -0.5960948 2.572526 -0.5148017 -3.359931 -1.076931 -2.718557 -2.488595 -3.384831 0.9328752 -1.148885 -3.312434 -2.837114 -1.060214 -0.9371269 1.877717 1.459145 -1.087377 -1.665284 -0.1676778 -0.2663171 1.930939 0.9594608 3.451361 0.234109 2.958488 1.009104 3.254948 1.222592 3.227959 2.566181 -1.977628 10.62444 1 588
-1.978318 -2.047811 -0.4612219 -2.0706 -1.429103 0.4555455 -2.054425 0.8817057 2.023627 -0.7843544 -0.4766688 3.280935 -0.4406409 -3.543205 -1.19311 -2.846159 -2.47005 -3.497269 1.528452 -1.518218 -3.426173 -3.059233 -0.9347224 -1.135861 2.373295 1.075239 -1.387464 -1.693347 -0.2885757 0.1455064 1.70299 1.128314 3.30747 0.02972382 2.823321 1.114398 3.097532 1.143306 3.081603 2.101928 -2.724828 10.16643 1 592
-0.6479375 -1.803004 -0.7626438 -1.787308 -1.391963 0.8368582 -1.818943 1.13824 1.892487 -0.3759469 -0.3802964 3.68694 -0.3717489 -3.635943 -1.15393 -2.832397 -2.470436 -3.53115 1.804922 -1.79884 -3.530486 -3.132819 -0.9174281 -1.359674 2.465643 1.0895 -1.623281 -1.73176 -0.4096435 0.2326615 1.434641 1.08801 3.097902 -0.1146249 2.644869 1.073364 2.90341 0.9507536 2.837415 1.805724 -3.19557 9.79441 1 596
0.8495367 -1.491953 -1.310989 -1.419767 -1.291212 0.9175643 -1.541049 1.032571 1.770973 -0.2644499 -0.3491442 3.242063 -0.3349809 -3.679638 -1.022419 -2.718294 -2.581901 -3.521603 1.510151 -1.633905 -3.607443 -3.017665 -1.004946 -1.479471 2.271934 1.477663 -1.752192 -1.734066 -0.4743276 0.1078994 1.182669 0.9392555 2.892073 -0.07176173 2.477902 1.119094 2.684359 0.7295651 2.541964 1.750811 -3.18743 9.992575 1 600
2.322264 -1.183329 -1.766206 -1.060134 -1.195639 0.84842 -1.273022 0.931365 1.837874 -0.4925457 -0.2975104 2.650326 -0.2626637 -3.808338 -1.084515 -2.666563 -2.724417 -3.491981 1.068734 -0.9972763 -3.628814 -2.938264 -1.115139 -1.492769 2.113181 1.724968 -1.87793 -1.685996 -0.569596 0.008269765 0.8970337 0.7307553 2.581352 -0.04065207 2.189042 1.175667 2.322929 0.5064566 2.137181 1.567788 -3.05936 11.09904 1 604
3.138425 -1.049419 -1.785406 -0.9168488 -1.26966 0.8977768 -1.13177 1.041633 2.183135 -0.8638874 -0.2471406 2.611145 -0.2105976 -3.998807 -1.486225 -2.750796 -2.768244 -3.422472 0.8863085 -0.3160336 -3.536849 -2.986085 -1.194057 -1.441229 2.054995 1.646651 -1.965205 -1.549091 -0.6932887 0.1194172 0.6621417 0.5876374 2.221126 -0.09858441 1.824839 1.20434 1.924206 0.3723028 1.740805 1.159347 -2.975969 12.38137 1 608
2.664361 -1.274244 -1.407201 -1.175753 -1.595449 0.8068547 -1.234789 1.237224 2.607775 -1.118737 -0.3400281 3.00441 -0.3230861 -4.085891 -1.922283 -2.854451 -2.597412 -3.276404 1.156882 0.07957801 -3.231782 -2.955116 -1.090071 -1.321197 2.164534 1.48054 -1.818364 -1.219319 -0.6515148 0.5393077 0.6432154 0.8290987 2.045148 0.04232324 1.650074 1.458586 1.740844 0.5129261 1.601574 0.8986419 -2.859202 11.1883 1 612
1.009525 -1.750177 -0.9390092 -1.69307 -2.012346 0.386005 -1.539688 1.398347 2.771955 -1.197091 -0.6022477 3.591141 -0.5944996 -4.030153 -1.981196 -2.869221 -2.250004 -3.102373 1.724501 0.2255542 -2.766863 -2.709117 -0.7717192 -1.156335 2.266346 1.349919 -1.420227 -0.6936148 -0.3677036 1.055379 0.7777963 1.400616 2.106467 0.5110473 1.751775 1.978805 1.833558 0.8888234 1.759057 1.045312 -2.834851 7.449507 1 616
-0.9598366 -2.125538 -0.6397623 -2.086381 -2.256747 0.08903267 -1.813122 1.477757 2.573136 -1.167265 -0.7687976 4.185842 -0.7593141 -3.938239 -1.646502 -2.833304 -1.882092 -3.050903 2.150602 0.1915957 -2.359081 -2.427816 -0.4499527 -1.103024 2.094989 1.131605 -1.032267 -0.1794524 -0.08924194 1.390047 0.7967939 1.865301 2.218077 1.025359 1.899677 2.477328 1.982554 1.21493 1.961783 1.394785 -3.004238 4.451603 1 620
-2.098379 -2.122382 -0.5608214 -2.069719 -2.220078 0.2733395 -1.831962 1.615747 2.162365 -0.8430972 -0.6222318 4.648207 -0.6123723 -3.88921 -1.144336 -2.847639 -1.435637 -3.166759 2.446822 -0.01132855 -2.100927 -2.380754 -0.1929798 -1.29028 1.93952 0.7901461 -0.9226473 0.1372112 -0.071987 1.561139 0.5654855 2.056019 2.147846 1.266802 1.827627 2.72696 1.914522 1.303409 1.935131 1.51524 -3.439726 3.041646 1 624
-1.71647 -1.818653 -0.5774156 -1.735561 -2.058682 0.6996738 -1.641525 1.940553 1.726688 -0.1061255 -0.3834903 4.918382 -0.3449898 -3.907185 -0.693872 -2.966341 -0.8177662 -3.286183 2.873248 -0.2175672 -1.91262 -2.585225 0.1403198 -1.57736 2.185593 0.5113178 -1.116936 0.2695059 -0.2940592 1.723661 0.2208757 2.087361 1.830574 1.17575 1.526999 2.673963 1.606204 1.206371 1.676471 1.218531 -4.186401 1.73241 1 628
-0.2202158 -1.514587 -0.6203446 -1.408312 -1.979412 1.10777 -1.477212 2.150697 1.386689 0.5876297 -0.395744 4.736666 -0.308089 -3.921489 -0.4129003 -3.086879 -0.2644695 -3.229652 3.107774 -0.348962 -1.738491 -2.79535 0.5005978 -1.719183 2.579098 0.4114467 -1.38291 0.2961904 -0.5568394 1.85456 -0.04395084 1.956577 1.425756 0.9249012 1.176677 2.400749 1.262613 1.02824 1.372792 0.745824 -4.786723 1.198419 1 632
1.223713 -1.434304 -0.6606784 -1.334573 -2.039209 1.350013 -1.482204 1.921703 1.154418 0.6925719 -0.6159694 4.00925 -0.5202718 -3.767203 -0.2202458 -3.016892 -0.07419599 -2.971074 2.774057 -0.6047658 -1.560955 -2.729409 0.6675756 -1.662987 2.622761 0.5036885 -1.414699 0.3258512 -0.6224016 1.7957 -0.1254281 1.67171 1.154888 0.8067827 0.9562619 2.10355 1.076439 0.8400105 1.194558 0.5562348 -4.674214 2.129905 1 636
1.900558 -1.644026 -0.5959774 -1.593389 -2.229554 1.159092 -1.668263 1.33525 1.003137 0.2406505 -0.707907 3.09171 -0.6588606 -3.432388 -0.02473032 -2.770771 -0.2239697 -2.621233 2.174191 -1.0407 -1.348392 -2.353978 0.6347404 -1.516357 2.366512 0.7804902 -1.122836 0.4553576 -0.3951771 1.581033 -0.04340342 1.449356 1.134725 0.9706684 0.9669996 1.926607 1.117221 0.7581769 1.234967 0.8558082 -3.903015 2.757611 1 640
2.001612 -1.960908 -0.5451094 -1.975585 -2.454822 0.6179717 -1.92858 0.6655675 0.9147715 -0.2681453 -0.5908493 2.251128 -0.6018836 -3.137716 0.1117437 -2.633707 -0.461782 -2.340632 1.682379 -1.313916 -1.160815 -1.983527 0.4815808 -1.372922 2.204651 1.169204 -0.7507581 0.5870585 -0.07550588 1.389477 0.1325243 1.373791 1.32075 1.1924 1.163537 1.788528 1.325891 0.8439108 1.434658 1.300277 -3.025664 2.629359 1 644
1.996674 -2.079681 -0.8174099 -2.129229 -2.546961 0.2193539 -2.068729 0.1814976 0.82578 -0.5383289 -0.5791907 1.612889 -0.6187931 -3.065263 0.1291959 -2.822753 -0.6357315 -2.245189 1.344804 -1.232019 -1.1259 -1.922741 0.2177124 -1.283989 2.304842 1.617284 -0.5934466 0.5504723 0.09010072 1.309121 0.4226346 1.294199 1.601546 1.180592 1.428016 1.522285 1.591642 0.9964907 1.663444 1.418631 -2.575386 3.361427 1 648
1.972505 -1.993195 -1.376828 -2.03882 -2.492969 0.2658855 -2.078573 -0.02232942 0.5877079 -0.6890108 -0.8823227 1.346568 -0.90956 -3.158193 0.09524529 -3.227937 -0.7555471 -2.316946 1.157331 -1.166202 -1.208133 -2.07589 -0.01415253 -1.295046 2.52383 1.944265 -0.6510927 0.4191037 0.1285662 1.33574 0.7991409 1.18075 1.948963 1.009519 1.737124 1.225878 1.893925 1.101616 1.914452 1.250221 -2.687576 5.202069 1 652
1.695584 -1.975916 -1.815615 -2.003401 -2.422035 0.5780237 -2.162358 -0.08268755 0.09802391 -0.8416433 -1.310383 1.38943 -1.307699 -3.185254 0.1235486 -3.560706 -0.828785 -2.412739 1.05056 -1.369051 -1.239129 -2.10342 -0.04461007 -1.395398 2.559376 1.836902 -0.6495592 0.4313028 0.2184399 1.404841 1.031375 1.145502 2.263479 0.9983979 2.034668 1.193453 2.183355 1.184201 2.182351 1.242267 -3.104075 6.969304 1 656
0.9702351 -2.198372 -1.84451 -2.217385 -2.428647 0.6241761 -2.42744 -0.2328835 -0.4013309 -1.018529 -1.520554 1.426076 -1.489827 -3.002862 0.2493191 -3.650854 -0.8125589 -2.398376 0.9297308 -1.455475 -1.146345 -1.885601 0.1220651 -1.490747 2.386531 1.295008 -0.4004811 0.670522 0.3914056 1.512393 0.9300688 1.240519 2.31459 1.264886 2.122881 1.513464 2.264461 1.310179 2.321366 1.570447 -3.316095 7.908569 1 660
-0.1903781 -2.507797 -1.609761 -2.530463 -2.490292 0.1601868 -2.734069 -0.5012683 -0.6167924 -1.186365 -1.37218 1.35603 -1.33071 -2.68728 0.3943761 -3.575163 -0.6526729 -2.237643 0.8634009 -1.077198 -0.9294197 -1.582659 0.3664156 -1.480672 2.256026 0.6283098 -0.03634403 1.028434 0.5257946 1.714885 0.621289 1.430401 2.088026 1.579268 1.946514 1.976016 2.071332 1.447337 2.253511 1.911706 -3.091334 7.801147 1 664
1.728381 1.852784 1.040415 1.062882 1.883495 0.7060704 3.340636 0.821887 0.5334454 -0.8694578 0.6717914 -0.8243929 0.5426602 7.984619 4.608323 5.682275 4.708744 2.081409 -0.8820721 0.2640691 9.40756 4.376976 -2.061342 -1.815975 -2.142133 -1.684814 0.224953 0.5968549 -1.477879 -2.122283 -11.07724 -2.400774 -9.416668 -2.161659 -6.024226 -2.186389 -10.44604 -2.312131 -10.3025 -5.179084 9.713544 11.55377 2 -168
1.492693 1.608599 0.877845 1.00503 1.727142 0.5399744 3.247621 0.9078553 0.1731856 -0.5632416 0.3388501 -0.5458784 0.2203169 7.864938 4.526727 5.522402 4.588236 1.716222 -0.5590631 -0.06588131 9.063132 4.052807 -1.751987 -2.050296 -1.848967 -1.936768 0.2318041 0.5920773 -1.327898 -1.828413 -10.548 -2.060844 -9.009615 -1.905774 -5.776268 -1.86955 -10.03394 -2.0538 -9.866815 -4.977518 9.638443 10.64432 2 -164
1.247859 1.519329 0.5523891 0.7341692 1.643369 0.4224789 2.947312 1.115441 -0.05956629 -0.1249677 0.0780969 -0.1409572 -0.02145162 7.687605 4.445819 5.398137 4.448271 1.387379 -0.130208 -0.3278581 8.620838 3.65743 -1.569379 -2.224093 -1.637638 -2.111735 0.09112924 0.5420282 -1.235037 -1.651894 -9.719633 -1.824355 -8.501475 -1.73353 -5.535053 -1.678383 -9.483659 -1.853158 -9.306143 -4.703375 9.400009 9.634378 2 -160
0.8416122 1.511181 0.110156 0.3902501 1.574468 0.1815314 2.640172 1.171392 0.01198343 0.1509525 0.08510761 0.1383616 -0.004425612 7.386051 4.277498 5.120258 4.130286 1.139309 0.1719691 -0.2606307 8.194899 3.325643 -1.44988 -2.227357 -1.489489 -2.109137 0.0417907 0.5162909 -1.12367 -1.536254 -8.970201 -1.639224 -8.014262 -1.602027 -5.133951 -1.575086 -8.914671 -1.680376 -8.744708 -4.276361 9.236496 8.404709 2 -156
0.4517195 1.487822 -0.1169363 0.2029693 1.505687 -0.09193923 2.56809 1.10649 0.2202408 0.231641 0.2158837 0.2408646 0.1635848 6.877643 3.919755 4.65548 3.644823 0.8442492 0.3070455 -0.0123757 7.737856 2.920569 -1.233979 -2.070068 -1.271108 -1.948845 0.07709823 0.5262842 -1.046084 -1.308937 -8.554537 -1.357641 -7.647627 -1.355889 -4.660536 -1.366474 -8.540261 -1.432374 -8.343171 -3.826885 9.062696 7.216854 2 -152
0.4531427 1.426187 0.1691523 0.3124746 1.447857 -0.1955825 2.708712 1.234444 0.2922234 0.2245248 0.2199259 0.2475372 0.2539835 6.155746 3.411707 4.113627 3.195943 0.3823445 0.3378512 0.09016338 7.207705 2.270619 -0.8749513 -1.926853 -0.9110785 -1.7987 0.04108736 0.5357058 -1.106861 -0.9526445 -8.340907 -0.9674158 -7.326828 -0.9330738 -4.317565 -0.9828484 -8.326875 -1.067322 -8.053527 -3.428567 8.566961 6.212593 2 -148
0.6794638 1.291535 0.710104 0.589874 1.268624 -0.2192255 2.757615 1.51866 0.3020973 0.1998916 0.2234965 0.2384815 0.3267263 5.27849 2.854292 3.532985 2.901756 -0.223414 0.3377762 0.1394659 6.672064 1.463362 -0.4457659 -1.913614 -0.4582838 -1.780586 -0.1013645 0.572105 -1.30224 -0.5422054 -8.097505 -0.5387828 -6.873265 -0.4319475 -4.070493 -0.540016 -8.007787 -0.6107623 -7.666391 -2.892175 7.663814 5.192795 2 -144
0.7223076 1.125625 0.8472416 0.6209741 0.8256726 -0.3726483 2.399053 1.668127 0.2826077 0.2727789 0.2534897 0.3187455 0.3506382 4.395504 2.277432 2.825887 2.643383 -0.8629169 0.4516152 0.2022987 6.229603 0.7357347 0.01924144 -1.982824 0.02946773 -1.858007 -0.1503686 0.7074004 -1.525395 -0.05828257 -7.65019 -0.07638852 -6.201396 0.09448072 -3.696273 -0.06125062 -7.360698 -0.07675794 -7.016156 -2.130035 6.496761 4.283527 2 -140
0.5186971 0.9421559 0.4149713 0.1838014 0.2134038 -0.6715874 1.715215 1.554027 0.1552439 0.4403897 0.178619 0.4644062 0.2184915 3.666415 1.736123 1.99008 2.266319 -1.40038 0.659964 0.1699086 5.921968 0.224069 0.4794631 -2.024849 0.4934736 -1.909761 0.06343861 0.9545624 -1.671706 0.4645752 -6.944027 0.3962536 -5.429126 0.6218522 -3.094093 0.466518 -6.489324 0.4493212 -6.200746 -1.358998 5.364689 3.806254 2 -136
0.3124982 0.7318344 -0.03719932 -0.4169758 -0.2941784 -0.9305342 1.182802 1.285381 0.1779823 0.5734658 0.2270281 0.5676582 0.2092086 3.139015 1.370086 1.238518 1.812404 -1.68124 0.7758781 0.2501643 5.651426 -0.08356757 0.7340186 -1.899225 0.7579002 -1.794129 0.3861189 1.243469 -1.735457 0.7631369 -6.142021 0.6640287 -4.829944 0.9422979 -2.496218 0.8083649 -5.840803 0.7166607 -5.612487 -0.8918714 4.565418 3.5994 2 -132
0.3817759 0.561857 -0.05344846 -0.7135597 -0.5316718 -1.003313 1.007315 1.180318 0.4981366 0.656959 0.5480481 0.6425398 0.4952193 2.748054 1.215168 0.7776334 1.43097 -1.731271 0.7909542 0.5624035 5.232631 -0.3451426 0.7214399 -1.601915 0.7701154 -1.512648 0.5217336 1.459376 -1.825499 0.7482888 -5.462688 0.6387879 -4.469666 0.9454358 -2.229432 0.8307732 -5.572961 0.6654743 -5.379321 -0.8257744 3.997148 3.230526 2 -128
0.6634365 0.5372931 0.144236 -0.5886679 -0.5624028 -0.9550483 0.8693922 1.300451 0.7665331 0.7205244 0.8023594 0.7328722 0.7363943 2.423403 1.163244 0.606585 1.181841 -1.738082 0.8012165 0.7671126 4.601256 -0.6908123 0.7091884 -1.309219 0.7626691 -1.222492 0.3778875 1.524261 -2.043804 0.7019406 -4.910224 0.5961805 -4.116951 0.8906317 -2.29268 0.782605 -5.344745 0.610221 -5.16466 -0.8367122 3.467902 2.534504 2 -124
0.8279346 0.6542698 0.1816839 -0.4005879 -0.5053655 -0.7939465 0.4975662 1.355906 0.7336573 0.8263566 0.7503325 0.8727922 0.6938501 2.19157 1.155262 0.6009724 0.9947239 -1.68567 0.8772578 0.6586254 3.875986 -0.9600287 0.8298989 -1.104378 0.8576539 -1.008086 0.09987946 1.457062 -2.315713 0.7751442 -4.382162 0.6888203 -3.690565 0.9646671 -2.399204 0.8188432 -4.978181 0.7231802 -4.810906 -0.6075143 3.167017 1.511332 2 -120
0.8290138 0.7931553 0.1870272 -0.43191 -0.3615499 -0.4085397 0.1250241 1.204636 0.5698974 0.9678643 0.5874323 1.003202 0.5507253 2.051869 1.177212 0.6507524 0.7439305 -1.461265 0.9895597 0.4612709 3.219268 -0.9741598 0.8973847 -0.9786146 0.910305 -0.8740532 -0.1378358 1.332204 -2.478935 0.8172029 -3.895279 0.7318556 -3.345519 1.002489 -2.374596 0.8081648 -4.621009 0.8125633 -4.508485 -0.3156843 3.239863 0.5039631 2 -116
0.8606384 0.8793093 0.3904213 -0.5544771 -0.1454466 -0.0009357496 0.1485423 0.9923529 0.4464372 0.973069 0.4938434 0.9651775 0.4581126 1.84989 1.14705 0.680851 0.4136248 -1.196495 0.9760045 0.3577553 2.65652 -0.8791513 0.8640817 -0.9454937 0.8748828 -0.8276139 -0.3245423 1.240881 -2.494851 0.7873595 -3.426882 0.6766937 -3.027596 0.9272889 -2.246284 0.753322 -4.249094 0.8119171 -4.211461 -0.1686465 3.342501 -0.269296 2 -112
0.904875 0.8494241 0.5381541 -0.7324169 -0.07163835 0.08044365 0.3480412 0.9975284 0.279739 0.9508575 0.3669235 0.8979805 0.3135592 1.457262 0.982599 0.5998685 0.2005427 -1.140237 0.9489298 0.2228455 2.09891 -0.9108118 0.9519474 -0.9985039 0.9490156 -0.8649549 -0.5814131 1.252669 -2.42046 0.8751171 -2.925065 0.7547327 -2.555932 0.9526379 -2.065741 0.8557806 -3.713635 0.9214086 -3.685529 -0.06401844 3.066668 -0.8879046 2 -108
0.867885 0.6543198 0.354713 -1.011292 -0.3058388 -0.1509354 0.1640507 1.202913 0.1197076 1.168329 0.2285151 1.065636 0.165438 0.9581467 0.7019731 0.3579114 0.2971726 -1.296936 1.155867 0.07725722 1.562816 -1.049822 1.18524 -1.069373 1.168939 -0.9232448 -0.9493303 1.325975 -2.266886 1.091301 -2.442383 0.9953277 -2.041401 1.129978 -1.889333 1.103395 -3.149732 1.138846 -3.086297 -0.02038103 2.558349 -1.147227 2 -104
0.7526228 0.4271692 -0.0435803 -1.135729 -0.7242095 -0.4810466 -0.3613124 1.199355 0.1894264 1.390713 0.2779037 1.2622 0.2197288 0.4886279 0.3479166 -0.04245438 0.5179201 -1.447088 1.356115 0.1569442 1.120007 -1.101078 1.361524 -1.0017 1.327905 -0.8350254 -1.30083 1.334365 -1.975079 1.2619 -1.955539 1.193614 -1.615566 1.284464 -1.709071 1.295425 -2.683553 1.283233 -2.649998 -0.07654733 2.23853 -1.148114 2 -100
0.5149103 0.3660147 -0.5040324 -0.9870388 -1.135656 -0.8094546 -0.8197195 0.7942061 0.347771 1.227627 0.3778627 1.146693 0.3356235 0.09162038 -0.07294579 -0.5991614 0.446717 -1.503685 1.19671 0.3504311 0.7434824 -1.020503 1.458955 -0.7113804 1.401358 -0.5182738 -1.442528 1.237394 -1.49143 1.395431 -1.483909 1.328574 -1.187219 1.395229 -1.358266 1.419831 -2.119414 1.384061 -2.181473 -0.02573002 2.186528 -1.174748 2 -96
0.179228 0.3768898 -0.8558031 -0.8207569 -1.448711 -1.057745 -1.010257 0.3243062 0.3367929 0.7981503 0.2996795 0.8027462 0.2819265 -0.2261408 -0.5012184 -1.178638 0.04720853 -1.541522 0.8136177 0.3926258 0.3923916 -0.9458336 1.56876 -0.380896 1.504147 -0.2017205 -1.339116 1.08523 -0.8962839 1.560647 -1.177457 1.48321 -0.7236294 1.52515 -0.7727419 1.564679 -1.376605 1.52948 -1.503608 0.2267893 2.148796 -1.283235 2 -92
0.02414878 0.3728615 -0.8704569 -0.6740032 -1.552906 -1.057451 -0.7959435 0.2188736 0.376033 0.4654173 0.2909347 0.5049029 0.2854 -0.4865708 -0.8265522 -1.478567 -0.3204783 -1.559367 0.5109664 0.4613791 0.0311926 -0.9996638 1.682125 -0.3431638 1.631474 -0.21767 -1.262191 0.8425989 -0.4888936 1.71033 -1.078512 1.625496 -0.4028507 1.641431 -0.3294146 1.700052 -0.840838 1.639371 -0.9807947 0.4530465 1.888912 -1.790071 2 -88
0.2090715 0.4964965 -0.5932129 -0.3441445 -1.406639 -0.8369591 -0.2411174 0.4282227 0.6229702 0.361663 0.5252432 0.3973036 0.5175306 -0.7093381 -1.015387 -1.345297 -0.5064913 -1.476581 0.3835971 0.7035112 -0.4039938 -1.173007 1.816774 -0.6780458 1.779158 -0.5892189 -1.511445 0.4291774 -0.4872581 1.852944 -1.217335 1.772017 -0.3293173 1.776621 -0.3982413 1.849297 -0.7797918 1.710041 -0.9172459 0.4985592 1.352329 -2.522404 2 -84
0.4186051 0.6118641 -0.305152 0.06030232 -1.17319 -0.6753382 0.1997284 0.6126875 0.7474069 0.4645823 0.6750847 0.5080518 0.6913005 -0.8413557 -1.137338 -0.9958652 -0.6970653 -1.260991 0.4517512 0.8050014 -0.8830881 -1.296581 1.975066 -1.102995 1.930805 -1.036199 -2.006774 -0.1252272 -0.6770497 1.999615 -1.602559 1.946136 -0.3313258 1.944329 -0.6844504 2.020306 -0.8486617 1.826433 -0.9636161 0.5215472 0.7654077 -2.531282 2 -80
0.3811518 0.6097057 -0.1774637 0.2311785 -0.9567012 -0.6714569 0.3325438 0.5712184 0.7005181 0.6398752 0.6717026 0.6966836 0.7384306 -0.7859388 -1.220717 -0.6939353 -1.008442 -0.9449909 0.6321127 0.7503834 -1.251155 -1.197942 1.956045 -1.318844 1.902216 -1.272618 -2.371516 -0.7131511 -0.7185439 1.981074 -2.001164 1.933025 -0.3045342 1.915121 -0.7180114 1.986568 -0.7556274 1.83508 -0.8192818 0.5873418 0.5356769 -1.685845 2 -76
0.2289107 0.6722667 -0.1117648 0.1112084 -0.7079662 -0.7000686 0.42881 0.3360138 0.8032569 0.595081 0.7907045 0.6762758 0.8799157 -0.5560276 -1.190244 -0.417668 -1.344035 -0.6074775 0.6298628 0.8662643 -1.380054 -0.9339957 1.655833 -1.229326 1.618699 -1.193883 -2.392309 -1.201929 -0.5923788 1.712891 -2.133883 1.631928 -0.3232692 1.587484 -0.5577912 1.670813 -0.648408 1.600611 -0.6492295 0.5911093 0.6480787 -0.8648224 2 -72
0.1895902 0.7428095 0.0985234 -0.01983128 -0.4215226 -0.6901143 0.6714441 0.1609249 1.050183 0.2439567 1.004727 0.3424495 1.066472 -0.2911572 -1.010634 -0.008579888 -1.530206 -0.3025959 0.3193298 1.083757 -1.270456 -0.7142082 1.287835 -0.9939829 1.289455 -0.9490837 -2.23163 -1.48438 -0.4967921 1.38637 -1.961634 1.295008 -0.3950049 1.214168 -0.565053 1.317961 -0.6719205 1.290696 -0.6275371 0.486108 0.6970316 -0.6025709 2 -68
0.2862144 0.6664767 0.414802 -0.0308897 -0.1556756 -0.6655087 1.001112 0.2049978 1.129909 -0.1098835 1.052773 -0.03952229 1.062619 -0.04720522 -0.7557322 0.5286154 -1.424882 0.0008625876 -0.02389576 1.076175 -1.001004 -0.5618754 0.9417156 -0.7540039 0.9841936 -0.6906524 -2.097973 -1.56612 -0.4864162 1.063322 -1.535462 0.9933749 -0.4083411 0.8848114 -0.810359 1.000478 -0.6851263 0.9684555 -0.6458115 0.2276922 0.5903782 -0.5824183 2 -64
0.2955334 0.4142822 0.5226789 -0.2347804 -0.01993902 -0.648663 1.109133 0.3642468 0.8692164 -0.1920729 0.8085739 -0.1771067 0.7859743 0.211628 -0.516197 0.9410439 -1.06106 0.3288959 -0.1379539 0.7431147 -0.6313165 -0.2692727 0.5342949 -0.4223875 0.6004046 -0.3881898 -1.902828 -1.51856 -0.4003816 0.6378126 -0.8957285 0.6114806 -0.2614712 0.4786279 -0.9664423 0.6272316 -0.4675249 0.556335 -0.4516421 -0.1346971 0.559027 -0.3010795 2 -60
0.1307162 0.05835573 0.2817843 -0.6421597 -0.06441975 -0.5955236 0.7597178 0.4397488 0.4236655 -0.1392248 0.4105303 -0.1658235 0.3800876 0.4636951 -0.3133604 1.019174 -0.671325 0.6474578 -0.1425121 0.2930748 -0.2109258 0.2557627 0.1772948 -0.05842659 0.2412572 -0.1020848 -1.440513 -1.386203 -0.1413346 0.2399465 -0.3376314 0.2608114 -0.07137997 0.100798 -0.8068036 0.297575 -0.1237499 0.1838237 -0.09229761 -0.3733612 0.7359124 0.07818177 2 -56
-0.03986599 -0.1875078 -0.08520348 -0.8116683 -0.1408496 -0.4709064 0.2093803 0.2656986 0.01144785 -0.2097454 0.06514065 -0.2431134 0.005098782 0.6673138 -0.08698381 0.8783969 -0.3958178 0.9104056 -0.2589228 -0.05344128 0.1941785 0.8329554 -0.0621073 0.1908369 0.0125278 0.08854744 -0.7238052 -1.216341 0.2194581 -0.01133798 -0.1501356 0.01042028 -0.03031718 -0.1384847 -0.4534338 0.06605503 0.1109692 -0.05140856 0.146164 -0.3711168 0.9664325 0.3411436 2 -52
-0.1737216 -0.3040128 -0.3085283 -0.7093095 -0.08085477 -0.3102675 -0.1980654 -0.0482995 -0.2905486 -0.3320597 -0.1720642 -0.3629644 -0.2614722 0.8069789 0.213273 0.791716 -0.1054542 1.09805 -0.4044278 -0.2537948 0.5108399 1.250408 -0.3043309 0.3595435 -0.1973693 0.2554841 0.00338284 -1.078297 0.5704367 -0.2514614 -0.1207167 -0.2460883 -0.09161866 -0.3500299 -0.1101859 -0.1903455 0.2282621 -0.2789754 0.2161407 -0.304336 0.8934913 0.6415699 2 -48
-0.3053717 -0.427032 -0.2783548 -0.579582 0.1487345 -0.05665806 -0.3377889 -0.2111538 -0.4827121 -0.3468524 -0.3604963 -0.3866848 -0.4181021 0.8737543 0.5410318 0.8816013 0.3197584 1.234042 -0.4118824 -0.3834501 0.6951093 1.458999 -0.575449 0.368918 -0.4674776 0.283903 0.5535177 -0.9623383 0.7867022 -0.5476067 0.124015 -0.5286699 -0.08398373 -0.59414 0.1357164 -0.4953409 0.3236184 -0.5679575 0.3088171 -0.3312066 0.4452241 0.6571949 2 -44
-0.3485568 -0.5323064 -0.03812044 -0.3865332 0.5159802 0.3565251 -0.1949721 -0.29862 -0.6697294 -0.375084 -0.5868062 -0.4188698 -0.5962582 0.8915405 0.83043 1.060623 0.7281721 1.424166 -0.4112527 -0.6050188 0.7979327 1.566751 -0.8818096 0.2366632 -0.8119099 0.1488516 1.005009 -0.816847 0.8341862 -0.900218 0.6009964 -0.8584486 0.04634853 -0.8778924 0.3269728 -0.8358921 0.4857278 -0.8925505 0.5488294 -0.3775393 0.003189504 0.3058095 2 -40
-0.3237765 -0.5895241 0.2786715 -0.008844868 0.9637118 0.7926185 0.1279788 -0.6142245 -0.8412409 -0.5762531 -0.7723143 -0.6163129 -0.7908384 0.8946452 1.09593 1.203268 0.8952809 1.727969 -0.5949128 -0.8713928 0.8921419 1.709687 -1.342667 0.3565543 -1.317342 0.2516818 1.519241 -0.6429939 0.8461089 -1.403403 1.095381 -1.354292 0.2254396 -1.304278 0.5538239 -1.338469 0.736277 -1.333327 0.8636684 -0.3935473 -0.2715408 0.2708311 2 -36
-0.3603532 -0.584153 0.5288572 0.491524 1.367839 1.085179 0.4337789 -1.088173 -0.7785496 -0.8480953 -0.7042603 -0.8689485 -0.7635697 0.8620689 1.330513 1.233524 0.8211842 1.930855 -0.8542734 -0.8526247 0.9563383 1.800707 -1.92457 0.7686874 -1.932263 0.65924 2.062409 -0.3998244 0.8992332 -1.991607 1.458498 -1.967124 0.3491663 -1.862289 0.7985639 -1.989362 0.9503273 -1.889471 1.072256 -0.4426098 -0.5298306 0.7717189 2 -32
-0.3866317 -0.4837419 0.6116293 0.897011 1.559554 1.205779 0.4938291 -1.264763 -0.518171 -0.8675794 -0.4486922 -0.8565916 -0.5039178 0.7346411 1.404918 1.088982 0.7122284 1.78494 -0.8494683 -0.5420082 0.9041825 1.620587 -2.360694 1.05127 -2.386289 0.9657225 2.452909 -0.03768332 0.9090196 -2.414323 1.615684 -2.421118 0.3397945 -2.310393 0.9318134 -2.492267 0.9475253 -2.315061 1.028571 -0.5502204 -0.8082464 1.557407 2 -28
-0.3045421 -0.3854892 0.5773913 1.1312 1.511344 1.24725 0.3104878 -0.9360251 -0.3785141 -0.5161917 -0.3375082 -0.4877811 -0.3272654 0.4848993 1.24753 0.7901317 0.729429 1.305099 -0.4877353 -0.3476668 0.713281 1.154478 -2.461541 1.058257 -2.490474 0.9834019 2.601903 0.3888387 0.8074459 -2.544997 1.636306 -2.515794 0.2905917 -2.425522 0.9318702 -2.622069 0.8180115 -2.413045 0.8791714 -0.6063449 -1.158781 2.148762 2 -24
-0.2253352 -0.4005482 0.5368946 1.261927 1.330464 1.243477 0.09745567 -0.5282899 -0.4775935 -0.219744 -0.4965881 -0.1902237 -0.4259177 0.1236712 0.9482584 0.3674577 0.7901701 0.6000684 -0.2059166 -0.4598966 0.4622798 0.5525516 -2.175133 0.8713982 -2.185356 0.7792585 2.593806 0.8152107 0.6489515 -2.302207 1.734623 -2.18171 0.4509977 -2.100299 0.9672941 -2.309491 0.9332097 -2.118972 0.9948301 -0.4283789 -1.651791 1.97875 2 -20
-0.2142517 -0.4811007 0.4083796 1.195337 1.050285 1.115081 -0.1191914 -0.4264831 -0.7045305 -0.2960796 -0.7683359 -0.2784223 -0.7055115 -0.3078169 0.5992345 -0.210939 0.7462775 -0.106931 -0.2955384 -0.743513 0.2049291 0.009574846 -1.654412 0.695513 -1.636761 0.6159633 2.571104 1.246482 0.5893494 -1.755424 2.009517 -1.598919 0.8535135 -1.507748 1.20021 -1.716035 1.385619 -1.570809 1.420709 -0.0786127 -2.185745 1.445636 2 -16
-0.2663508 -0.5106612 0.1129637 0.8976852 0.721763 0.9463187 -0.3667111 -0.4327281 -0.9094616 -0.4722687 -0.954607 -0.4855256 -0.9361411 -0.7336594 0.2633385 -0.8292974 0.6611086 -0.5123474 -0.4835932 -0.9878506 -0.08988873 -0.3337675 -1.230992 0.8132024 -1.222818 0.7714323 2.546772 1.680168 0.6724556 -1.261466 2.324241 -1.149176 1.222346 -1.057253 1.518998 -1.252593 1.778769 -1.117979 1.768673 0.202321 -2.651216 1.346382 2 -12
-0.3487455 -0.4832341 -0.1200019 0.6074352 0.4790708 0.8734512 -0.6481803 -0.2369522 -0.9034109 -0.4445753 -0.9255126 -0.4849901 -0.8982466 -1.125278 0.002798882 -1.316239 0.707548 -0.7071731 -0.4714416 -0.9538097 -0.4932285 -0.6166098 -0.9065565 1.058973 -0.9546602 1.038139 2.326003 2.006933 0.6619892 -0.8984122 2.471617 -0.8229843 1.357406 -0.7697302 1.580468 -0.9582924 1.752512 -0.7987037 1.724115 0.341022 -3.244177 1.541251 2 -8
-0.3132008 -0.4458806 -0.08090054 0.5004627 0.3404928 0.8614826 -1.08214 0.1652124 -0.6541349 -0.2413533 -0.723675 -0.2744245 -0.6228643 -1.484594 -0.1778625 -1.667893 0.9422531 -1.022063 -0.2603349 -0.6281955 -1.003177 -1.048123 -0.535962 1.165335 -0.6208756 1.152994 1.787402 2.083497 0.4065059 -0.5198247 2.580786 -0.4407711 1.424225 -0.4501747 1.294535 -0.6161129 1.550392 -0.4593593 1.510591 0.358711 -4.15362 1.401958 2 -4
-0.05643402 -0.3456637 0.1601134 0.5415009 0.2903693 0.9565865 -1.539449 0.6532775 -0.4214773 -0.0394128 -0.5690311 -0.06108726 -0.395808 -1.693959 -0.2397326 -1.896101 1.310292 -1.409771 -0.03530394 -0.3226895 -1.436668 -1.482111 -0.301612 1.270111 -0.3570235 1.271153 1.107084 1.946356 0.09289362 -0.2778313 2.848797 -0.1972298 1.560781 -0.2323846 0.9024637 -0.3653168 1.526327 -0.2447737 1.443019 0.2248929 -5.042875 0.8568574 2 0
0.3718884 -0.1124622 0.4895007 0.8017548 0.4185348 1.269608 -1.697755 1.00665 -0.3747132 0.03595747 -0.5631802 0.005263589 -0.3573198 -1.679616 -0.09541518 -1.977904 1.684113 -1.601004 0.03315557 -0.2237322 -1.640261 -1.658469 -0.3295439 1.481812 -0.3369762 1.502664 0.4823992 1.765076 -0.07957942 -0.3032942 2.971051 -0.2475921 1.567583 -0.2413013 0.5700468 -0.360667 1.501048 -0.2781211 1.368621 -0.06308487 -5.531208 0.4260157 2 4
0.7892468 0.2167614 0.8133755 1.334922 0.6962973 1.674604 -1.48123 0.9982479 -0.3850504 -0.01798929 -0.5656298 -0.03537759 -0.3634678 -1.634635 0.1787272 -1.938145 1.913256 -1.570194 -0.0615931 -0.1952593 -1.71055 -1.647957 -0.4815741 1.655647 -0.4764722 1.701345 -0.05313865 1.616431 -0.1027771 -0.4488796 2.750753 -0.4384351 1.425599 -0.3805391 0.3367594 -0.4827206 1.362234 -0.4347096 1.208389 -0.4049675 -5.830437 0.4693395 2 8
1.127892 0.5457492 1.133474 1.819771 0.9819613 2.021425 -0.9803362 0.9202057 -0.305713 0.01079694 -0.4309888 0.02996072 -0.2507884 -1.751504 0.402779 -1.76589 2.055662 -1.453659 -0.07250452 -0.08882502 -1.835577 -1.688867 -0.6759905 1.59893 -0.6836228 1.660914 -0.5496374 1.512469 -0.0797653 -0.627474 2.461091 -0.6636105 1.326622 -0.5936683 0.1306325 -0.6335413 1.233425 -0.626271 1.069404 -0.7435336 -6.39344 0.8525961 2 12
1.477113 0.860868 1.506907 2.029388 1.244945 2.373837 -0.378685 1.122106 -0.1236757 0.3287235 -0.1732124 0.3632818 -0.02129065 -1.997195 0.5167871 -1.416727 2.245504 -1.304852 0.2348072 0.07253264 -2.142081 -1.853396 -0.8743965 1.371914 -0.8927845 1.423909 -1.153872 1.404447 -0.1419197 -0.8259104 2.158698 -0.8818138 1.226755 -0.8354341 -0.2090724 -0.784631 1.032098 -0.818063 0.859396 -1.118079 -7.253781 1.347181 2 16
1.7618 1.202379 1.808743 2.113486 1.518854 2.741329 0.09374098 1.392971 0.07164793 0.7710339 0.06560405 0.7979549 0.1950538 -2.23089 0.5822029 -0.9303243 2.368201 -1.08696 0.6961724 0.202027 -2.61426 -2.009732 -1.007142 1.335279 -1.02264 1.373727 -1.909861 1.167253 -0.3037825 -0.9769808 1.686926 -1.023044 1.044071 -1.02494 -0.6100224 -0.9243292 0.7616009 -0.9787935 0.6010868 -1.498989 -7.986963 1.786633 2 20
1.959196 1.548132 1.965858 2.236908 1.832985 3.03667 0.3488042 1.528429 0.182141 1.036662 0.1780808 1.056167 0.304609 -2.332808 0.6970127 -0.4319389 2.268339 -0.7758667 0.9783377 0.2778463 -3.074887 -2.011666 -1.06249 1.63218 -1.092866 1.672743 -2.610901 0.8206624 -0.4976538 -1.074351 1.041545 -1.103729 0.7641246 -1.155982 -0.8864033 -1.057994 0.4614219 -1.11501 0.3258515 -1.794218 -8.217499 2.14157 2 24
2.248425 1.927333 2.102751 2.443062 2.195635 3.309467 0.4637306 1.665877 0.2798666 1.041461 0.253756 1.07756 0.3896896 -2.354426 0.8611693 -0.02051754 2.004154 -0.4913513 0.9756216 0.4027076 -3.413878 -1.970539 -0.9531901 1.915157 -1.04484 1.958969 -3.13233 0.4934364 -0.7614266 -1.033222 0.2197651 -1.037651 0.3167592 -1.147584 -1.116626 -1.029476 -0.06419338 -1.097854 -0.1691575 -1.924431 -8.084247 2.300927 2 28
2.589789 2.316346 2.288507 2.540138 2.523285 3.60284 0.583817 2.04508 0.4790993 1.007387 0.428508 1.087628 0.5760938 -2.49155 0.9277313 0.2613233 1.787953 -0.437768 0.9348668 0.6409804 -3.714909 -2.160297 -0.5825901 1.786849 -0.7278564 1.81427 -3.593748 0.2292875 -1.108021 -0.7165881 -0.5896385 -0.6731763 -0.1477819 -0.8789215 -1.445961 -0.6774116 -0.7444414 -0.7992224 -0.7906647 -1.899471 -8.142624 1.870973 2 32
2.775772 2.505604 2.422667 2.362484 2.659863 3.793406 0.6728231 2.684084 0.6722451 1.236832 0.6184771 1.352504 0.7758427 -2.834414 0.7795267 0.3623199 1.788064 -0.6181976 1.179499 0.8120787 -4.06824 -2.577617 -0.07917209 1.247534 -0.2152276 1.233944 -4.105772 0.07592536 -1.423267 -0.2142355 -0.9631085 -0.1272389 -0.3287846 -0.4420041 -1.821638 -0.1446134 -1.201883 -0.3302478 -1.178285 -1.806879 -8.676826 1.146896 2 36
2.873332 2.504475 2.432616 2.214845 2.602598 3.844587 0.6936222 3.257372 0.7153857 1.690512 0.6619926 1.804502 0.8165087 -3.282263 0.4829348 0.2771675 1.890082 -0.8325881 1.655539 0.7565949 -4.407797 -2.934975 0.2982082 0.5899983 0.2065059 0.5483835 -4.572334 0.09704079 -1.651648 0.2124861 -0.8185148 0.2806839 -0.2044364 -0.07834569 -2.096901 0.2626103 -1.288592 0.07907634 -1.226869 -1.69819 -9.357349 0.700874 2 40
3.077261 2.51922 2.435307 2.402693 2.536854 3.836317 0.8589831 3.497683 0.66249 2.073119 0.5854657 2.153507 0.721652 -3.669437 0.2051167 0.08535344 1.75111 -0.9812211 2.048225 0.6036242 -4.608984 -3.074124 0.4099691 0.07050725 0.352871 0.05331366 -4.800625 0.2725724 -1.823687 0.3746676 -0.48627 0.3696123 0.02013965 0.07261927 -2.20309 0.3960055 -1.123688 0.2581896 -1.084602 -1.620209 -9.830981 0.602596 2 44
3.378619 2.518826 2.516442 2.865653 2.521429 3.739545 1.184547 3.520557 0.6427566 2.215206 0.538449 2.249058 0.642112 -3.914313 0.04190577 -0.1260641 1.263173 -1.122706 2.178876 0.5433546 -4.667145 -3.072051 0.3713727 -0.2557243 0.3351319 -0.2069417 -4.744752 0.5645396 -1.947309 0.3557911 -0.2696475 0.2896309 0.1564754 0.1213142 -2.174933 0.3804249 -0.9571658 0.2638353 -1.000093 -1.552925 -10.20879 0.8211684 2 48
3.635511 2.415571 2.611796 3.418662 2.460707 3.549454 1.492401 3.543834 0.6803238 2.145238 0.5760555 2.147107 0.6279182 -4.014477 -0.003820614 -0.2395286 0.7768533 -1.282319 2.086172 0.5783663 -4.700513 -3.068362 0.3624284 -0.4921257 0.3281434 -0.3934986 -4.552121 0.9004629 -2.024799 0.3486418 -0.1940361 0.2597209 0.1813694 0.2056758 -2.078459 0.3838428 -0.9391854 0.2628006 -1.057597 -1.405285 -10.67575 1.142724 2 52
3.648001 2.284443 2.59641 3.696073 2.33182 3.31377 1.671231 3.590112 0.642091 1.962418 0.5550483 1.966423 0.5571536 -3.90344 0.07360794 -0.1240584 0.6148216 -1.409642 1.902404 0.5518022 -4.763252 -3.123934 0.3948242 -0.6878029 0.3321521 -0.5965914 -4.395507 1.108069 -2.082481 0.3659871 -0.1179363 0.2881328 0.2195358 0.2829714 -1.993853 0.403585 -0.9169964 0.2768858 -1.049088 -1.182762 -11.00393 1.721914 2 56
3.361916 2.209284 2.469806 3.474324 2.289073 3.099059 1.649364 3.643327 0.4266869 1.760198 0.3305605 1.785434 0.3444046 -3.439342 0.3656611 0.2415421 0.6651285 -1.443001 1.728998 0.3598355 -4.75814 -3.150287 0.377443 -0.8214476 0.2853548 -0.7514915 -4.290397 1.088626 -2.128834 0.3305699 -0.07652812 0.2776985 0.2172246 0.2787737 -2.017611 0.3481263 -0.8733507 0.2425783 -0.965714 -1.006064 -10.72837 2.799595 2 60
3.033577 2.229159 2.509144 3.133265 2.565188 3.133882 1.663965 3.656852 0.1169528 1.558823 -0.01682107 1.602659 0.07057589 -2.61891 0.9509717 0.7960271 0.6829369 -1.298898 1.562173 0.06154015 -4.607612 -3.027706 0.1940822 -0.8947893 0.1130529 -0.8206222 -4.160839 0.8954805 -2.140044 0.1703804 -0.2731473 0.1157059 -0.07769162 0.1147584 -2.196126 0.1317508 -1.116498 0.07575539 -1.156826 -1.055216 -9.685587 4.008847 2 64
2.885561 2.316875 2.82307 2.969996 3.131322 3.460445 1.935574 3.60763 -0.238233 1.344562 -0.3724288 1.394593 -0.2473038 -1.659543 1.709242 1.450948 0.6692207 -0.9650356 1.375304 -0.308882 -4.346269 -2.820456 -0.1501452 -0.8692017 -0.186569 -0.8137558 -4.028242 0.6166359 -2.09503 -0.121659 -0.6493358 -0.2016131 -0.6286175 -0.2120683 -2.469884 -0.1986214 -1.647015 -0.225392 -1.671849 -1.333025 -8.328513 5.097447 2 68
2.912524 2.447612 3.131555 2.853485 3.725459 3.759118 2.252768 3.592178 -0.5143535 1.12496 -0.5887816 1.162318 -0.5183944 -0.8121834 2.418876 2.140715 0.7998189 -0.5620482 1.176957 -0.6117909 -4.02866 -2.722439 -0.5334322 -0.7457373 -0.5312924 -0.7327178 -3.968278 0.3299567 -2.008388 -0.490475 -0.9155857 -0.5624529 -1.116125 -0.5775384 -2.75838 -0.5304279 -2.104976 -0.5691694 -2.133108 -1.630449 -7.425946 5.864227 2 72
3.053496 2.665047 3.320054 2.825809 4.280581 3.888588 2.473631 3.620157 -0.3978401 0.8992741 -0.4140102 0.9295714 -0.4307425 -0.1640622 3.016077 2.867396 1.202781 -0.1592384 0.9637364 -0.5123147 -3.625133 -2.7312 -1.038415 -0.5502057 -1.006757 -0.5355687 -3.943757 0.07525142 -1.950341 -1.015366 -1.039281 -1.039728 -1.516532 -1.057147 -3.098518 -0.9894983 -2.489859 -1.044847 -2.496858 -1.990339 -7.162035 6.317796 2 76
3.186686 2.852192 3.527726 2.941125 4.889786 4.04494 2.678496 3.655326 0.04993603 0.7341101 0.04244974 0.7670154 -0.01033219 0.3951918 3.601243 3.547933 1.8374 0.3311623 0.7772098 -0.06786244 -3.012471 -2.583141 -1.727618 -0.2214277 -1.675336 -0.1895315 -3.735852 -0.07153814 -1.946731 -1.711256 -1.299879 -1.700828 -2.123612 -1.742197 -3.580696 -1.671677 -3.1938 -1.7231 -3.170737 -2.599289 -6.964023 6.862718 2 80
3.195087 2.811418 3.705871 3.01778 5.487195 4.279254 2.845772 3.526646 0.3612125 0.6337715 0.3589144 0.6335842 0.2931042 0.9293767 4.170694 3.994342 2.442319 0.9760571 0.6011372 0.2549941 -2.16195 -2.10523 -2.330118 0.2351024 -2.297195 0.2381279 -3.154298 0.008633787 -1.847245 -2.320262 -1.753709 -2.30565 -2.935881 -2.370609 -4.026308 -2.297873 -4.201615 -2.354409 -4.152215 -3.255415 -6.567657 7.436404 2 84
3.17155 2.592867 3.636491 3.039074 5.886756 4.394763 2.811738 3.043335 0.2971645 0.4561116 0.3463548 0.3900345 0.2063179 1.322529 4.574585 4.148791 2.802274 1.65848 0.3308652 0.1911569 -1.260281 -1.4641 -2.663368 0.650308 -2.665226 0.6265709 -2.312876 0.277824 -1.527336 -2.667222 -2.057359 -2.679607 -3.570091 -2.722763 -4.052977 -2.641823 -4.924835 -2.732339 -4.864298 -3.644746 -6.294532 7.889618 2 88
3.174829 2.368164 3.310674 3.11228 6.001585 4.364185 2.484593 2.460599 0.001718261 0.1728392 0.0781416 0.06896169 -0.1537789 1.507771 4.788347 4.14724 3.078176 2.20152 -0.00907807 -0.1634157 -0.5119267 -0.9672092 -2.770179 0.8464848 -2.778532 0.8386557 -1.484974 0.6078577 -1.113273 -2.757612 -2.111395 -2.840745 -3.863407 -2.811361 -3.659764 -2.75466 -5.10719 -2.860141 -5.061719 -3.71735 -6.351273 8.234165 2 92
3.053879 2.173218 2.961601 3.117518 5.870576 4.29934 2.037158 2.188656 -0.2913752 -0.06230465 -0.2647928 -0.1465117 -0.4963693 1.541279 4.899659 4.11819 3.522539 2.506866 -0.2649816 -0.5225688 0.06120456 -0.7480902 -2.61889 0.8085973 -2.631385 0.8141388 -0.8369579 0.9540852 -0.8309408 -2.575084 -2.245299 -2.717124 -4.028752 -2.640654 -3.272996 -2.63525 -5.161323 -2.718512 -5.140113 -3.577744 -6.730635 8.229462 2 96
2.850613 2.063845 2.753951 2.932551 5.639416 4.261182 1.773289 2.259745 -0.3753457 -0.1617389 -0.3954719 -0.1985549 -0.5450281 1.485002 4.944182 4.05336 4.037482 2.633323 -0.3659361 -0.5893024 0.5401418 -0.685923 -2.369922 0.7045407 -2.418381 0.7279198 -0.3572438 1.240812 -0.7575151 -2.355019 -2.602769 -2.472013 -4.235513 -2.427258 -3.145053 -2.440725 -5.389458 -2.50402 -5.392019 -3.45193 -7.184136 7.918648 2 100
2.774693 2.084794 2.708097 2.77483 5.517313 4.348544 1.776399 2.356597 -0.1690136 -0.2151419 -0.1670727 -0.2181943 -0.2610478 1.388999 4.966771 3.889309 4.327147 2.789591 -0.392667 -0.3021656 0.9582508 -0.5421269 -2.433126 0.7620191 -2.533809 0.8262072 0.1050658 1.349196 -0.7208576 -2.511924 -2.908184 -2.569833 -4.414352 -2.546957 -3.071528 -2.572689 -5.595459 -2.622417 -5.603753 -3.479185 -7.285439 7.432942 2 104
2.753772 1.952958 2.805714 2.806859 5.507354 4.546381 1.74005 2.385657 0.1539207 -0.209674 0.1864315 -0.2073689 0.1107149 1.253595 5.00185 3.570158 4.328106 2.935437 -0.35449 0.1058242 1.253103 -0.2958813 -2.750004 0.9549055 -2.878671 1.010451 0.6128089 1.317636 -0.5394072 -2.886241 -2.942349 -2.919739 -4.475012 -2.868077 -2.83945 -2.922806 -5.640001 -2.972029 -5.628777 -3.551445 -7.105001 6.692351 2 108
2.736178 1.504283 2.98025 2.816112 5.401453 4.701429 1.298852 2.713852 0.3720548 -0.06947071 0.3718285 -0.09005945 0.3577129 0.9927309 4.984738 3.075873 4.236432 2.692843 -0.2310407 0.39004 1.337941 -0.2050552 -2.827619 1.011818 -2.950793 1.001037 1.030997 1.316157 -0.2815739 -2.929346 -2.830528 -2.973738 -4.425982 -2.911011 -2.573611 -2.968205 -5.630852 -3.046342 -5.612833 -3.525583 -7.221744 5.980616 2 112
2.871296 1.028343 3.150183 2.630945 5.158128 4.694727 0.5950086 3.329106 0.5015048 0.043672 0.4446046 -0.02406103 0.5025495 0.5353222 4.872558 2.539302 4.237425 2.052231 -0.1857106 0.5429556 1.224272 -0.338678 -2.576684 0.9551744 -2.692991 0.9121666 1.244951 1.435625 -0.04069309 -2.605266 -2.702819 -2.694236 -4.262819 -2.630602 -2.363781 -2.672493 -5.567967 -2.764818 -5.561472 -3.348984 -7.911004 5.442174 2 116
2.939641 0.6747692 3.240654 2.223882 4.883007 4.486536 0.06027131 3.680119 0.6241438 0.06592521 0.5417753 -0.04871091 0.6114634 -0.07554729 4.73329 2.129088 4.351618 1.456938 -0.2273452 0.6451313 0.9980401 -0.4792434 -2.233275 0.9778073 -2.34412 0.9515121 1.329462 1.680598 0.1894774 -2.220986 -2.580864 -2.34413 -4.008594 -2.253793 -2.108001 -2.322068 -5.410553 -2.372617 -5.404917 -3.006339 -8.841028 4.806698 2 120
2.617026 0.3813815 3.145916 1.505385 4.58128 4.254478 -0.2835786 3.657512 0.5679387 0.1989406 0.474878 0.06740284 0.5276927 -0.6990464 4.615555 1.781492 4.438984 1.089896 -0.09632505 0.556172 0.7452328 -0.5451142 -1.810182 0.9835323 -1.881671 0.9579322 1.429021 2.063408 0.3508641 -1.809334 -2.509841 -1.909777 -3.752385 -1.800227 -1.81395 -1.937971 -5.193152 -1.91558 -5.199717 -2.532065 -9.514755 4.212238 2 124
